# File created = Wednesday, January 8, 2025 at 9:47:39 AM Central European Standard Time
# Data set = metacetamol_400  10  1  D:\widma\BEST-CSP
# Spectral Region:
# LEFT = 200.0 ppm. RIGHT = 0.0 ppm.
#
# SIZE = 7387 ( = number of points)
#
# In the following ordering is from the 'left' to the 'right' limits!
# Lines beginning with '#' must be considered as comment lines.
#
-587892.5625
-585965.25
-581182.25
-574443.6875
-567067.625
-560460.125
-555765.8125
-553584.375
-553813.125
-555654.0
-557786.1875
-558678.5
-556978.4375
-551888.0625
-543425.5
-532482.5625
-520641.0
-509777.375
-501565.3125
-497026.125
-496276.75
-498562.125
-502559.8125
-506847.4375
-510363.8125
-512700.8125
-514134.75
-515409.625
-517380.0
-520667.6875
-525465.0
-531542.875
-538429.9375
-545659.25
-552961.3125
-560321.25
-567887.75
-575789.5
-583951.5
-591993.4375
-599248.9375
-604889.75
-608101.8125
-608253.125
-605011.375
-598402.4375
-588821.0
-577010.625
-564016.875
-551104.3125
-539623.0
-530825.6875
-525660.6875
-524589.75
-527484.875
-533639.8125
-541898.125
-550862.0625
-559126.8125
-565484.375
-569065.5625
-569413.875
-566506.6875
-560739.6875
-552882.8125
-544000.375
-535326.4375
-528095.625
-523351.375
-521771.25
-523551.625
-528381.0625
-535505.375
-543861.625
-552248.6875
-559504.0
-564671.75
-567154.125
-566834.0625
-564141.4375
-560022.5
-555777.8125
-552770.9375
-552068.0625
-554119.25
-558609.625
-564566.1875
-570714.4375
-575969.875
-579874.875
-582790.3125
-585740.3125
-589948.6875
-596247.25
-604602.3125
-613971.3125
-622567.75
-628440.0625
-630136.5
-627194.1875
-620268.875
-610881.9375
-600919.625
-592107.875
-585664.5625
-582216.0625
-581922.875
-584661.25
-590109.375
-597676.5625
-606345.4375
-614587.375
-620505.75
-622255.75
-618629.25
-609569.4375
-596359.625
-581341.625
-567215.25
-556165.3125
-549157.0
-545689.25
-544108.3125
-542350.0
-538798.5625
-532909.75
-525357.1875
-517674.875
-511581.6875
-508293.8125
-508108.6875
-510398.75
-513964.4375
-517550.5625
-520288.875
-521903.375
-522645.6875
-523054.375
-523686.5625
-524941.1875
-527011.875
-529926.5625
-533596.75
-537825.875
-542287.3125
-546528.8125
-550059.5625
-552522.875
-553884.1875
-554520.875
-555124.5
-556413.9375
-558767.625
-561953.625
-565115.75
-567067.5
-566790.9375
-563919.3125
-558965.1875
-553156.25
-547924.625
-544266.75
-542270.375
-541044.125
-539103.875
-535058.25
-528288.875
-519317.625
-509691.8125
-501438.5625
-496332.1875
-495295.4375
-498178.4375
-503976.375
-511341.0625
-519121.9375
-526686.75
-533906.5625
-540872.625
-547544.5
-553547.0625
-558236.125
-560991.0
-561565.4375
-560291.6875
-558015.5625
-555784.25
-554443.4375
-554346.875
-555318.125
-556866.375
-558522.0625
-560097.875
-561729.625
-563681.5625
-566042.0
-568503.75
-570385.5
-570918.3125
-569665.1875
-566853.8125
-563423.625
-560724.625
-559980.125
-561756.625
-565692.9375
-570629.25
-575086.8125
-577883.5625
-578607.625
-577742.125
-576404.4375
-575843.8125
-576944.8125
-579958.75
-584552.5625
-590095.4375
-595987.375
-601835.375
-607391.4375
-612324.0
-616010.8125
-617543.75
-616024.6875
-611054.0
-603173.0
-593992.375
-585857.0
-581104.1875
-581184.375
-586009.1875
-593832.3125
-601759.5625
-606722.125
-606548.4375
-600720.6875
-590530.0625
-578588.5
-567907.9375
-560915.1875
-558764.375
-561160.625
-566687.625
-573438.9375
-579670.6875
-584235.0
-586691.625
-587146.625
-585968.1875
-583538.125
-580131.625
-575921.6875
-571037.6875
-565597.25
-559676.0625
-553245.9375
-546149.6875
-538168.5
-529182.0625
-519349.6875
-509207.25
-499595.6875
-491415.5625
-485297.1875
-481336.5625
-479040.625
-477540.8125
-476008.25
-474098.1875
-472213.0625
-471432.25
-473096.375
-478186.5625
-486752.3125
-497643.6875
-508702.125
-517381.375
-521592.125
-520456.375
-514674.0
-506343.375
-498285.4375
-493114.1875
-492400.5625
-496240.25
-503379.125
-511828.0
-519705.875
-525963.875
-530699.0
-534943.0625
-540035.6875
-546866.625
-555326.3125
-564213.375
-571648.25
-575822.75
-575767.0625
-571806.625
-565511.5
-559157.5
-554922.0
-554144.0625
-556939.0
-562296.6875
-568581.4375
-574191.3125
-578087.5625
-579994.625
-580240.625
-579380.6875
-577829.125
-575692.8125
-572866.5
-569295.75
-565215.625
-561190.375
-557895.0
-555739.4375
-554545.5625
-553485.5
-551370.5625
-547196.375
-540697.3125
-532627.125
-524587.5625
-518436.5
-515515.875
-516050.375
-519011.75
-522543.3125
-524781.25
-524715.25
-522696.1875
-520346.5625
-519891.5625
-523191.75
-530895.1875
-542076.6875
-554517.3125
-565498.8125
-572768.75
-575275.875
-573394.375
-568594.625
-562755.0625
-557446.875
-553493.6875
-550951.5
-549440.8125
-548609.5625
-548470.125
-549449.1875
-552152.25
-556990.875
-563879.375
-572155.9375
-580758.0625
-588555.0625
-594671.3125
-598660.0
-600477.875
-600319.1875
-598426.9375
-594991.3125
-590171.5625
-584195.3125
-577441.5625
-570426.375
-563679.5625
-557573.4375
-552203.9375
-547401.3125
-542873.4375
-538406.375
-534007.5625
-529904.0625
-526389.625
-523605.0625
-521383.1875
-519262.9375
-516689.9375
-513312.1875
-509218.4375
-504982.4375
-501469.9375
-499490.4375
-499461.375
-501255.6875
-504316.4375
-507983.4375
-511865.375
-516060.6875
-521104.3125
-527659.4375
-536109.25
-546262.625
-557335.5
-568228.75
-577968.0625
-586081.375
-592715.125
-598422.9375
-603731.4375
-608713.125
-612800.1875
-614959.0
-614159.625
-609916.4375
-602627.5
-593528.75
-584265.8125
-576275.8125
-570272.25
-566077.4375
-562879.625
-559779.0
-556343.0
-552884.3125
-550315.5
-549650.0625
-551402.0
-555196.8125
-559808.0625
-563624.9375
-565340.0625
-564531.0625
-561851.0
-558725.5
-556688.375
-556659.875
-558499.25
-561034.25
-562548.1875
-561496.5
-557131.375
-549769.625
-540618.6875
-531280.6875
-523191.1875
-517248.625
-513769.125
-512721.5625
-514055.3125
-517902.5
-524520.75
-534002.6875
-545918.1875
-559108.375
-571783.0
-581926.4375
-587858.5625
-588716.0625
-584650.6875
-576668.125
-566197.0
-554589.1875
-542769.625
-531164.5
-519891.1875
-509069.625
-499068.9375
-490552.3125
-484304.3125
-480937.8125
-480642.125
-483102.375
-487627.8125
-493413.9375
-499801.625
-506404.0
-513056.75
-519645.5625
-525935.625
-531523.0
-535954.8125
-538961.5625
-540669.375
-541654.25
-542771.75
-544809.625
-548109.8125
-552337.4375
-556518.9375
-559353.25
-559675.3125
-556877.125
-551110.4375
-543191.3125
-534259.125
-525350.875
-517078.6875
-509545.25
-502512.5
-495722.625
-489203.5625
-483403.75
-479087.5
-477034.875
-477681.0625
-480856.125
-485741.375
-491065.875
-495468.1875
-497888.1875
-497850.375
-495552.875
-491752.9375
-487511.0625
-483891.6875
-481714.6875
-481415.375
-483024.6875
-486243.3125
-490565.6875
-495414.375
-500255.0
-504680.75
-508463.0
-511570.0625
-514155.0625
-516516.375
-519033.125
-522083.8125
-525956.125
-530760.4375
-536361.125
-542342.6875
-548029.375
-552572.9375
-555110.4375
-554971.8125
-551891.5625
-546160.0625
-538651.75
-530693.9375
-523788.6875
-519254.5625
-517891.4375
-519778.0
-524270.125
-530207.4375
-536259.5625
-541302.25
-544703.875
-546444.0
-547045.9375
-547368.0
-548333.4375
-550679.75
-554782.8125
-560573.25
-567540.0
-574804.5625
-581259.125
-585762.75
-587380.3125
-585623.8125
-580626.3125
-573172.9375
-564540.9375
-556165.1875
-549223.6875
-544288.625
-541186.875
-539144.9375
-537179.875
-534588.125
-531329.6875
-528133.9375
-526264.9375
-527028.6875
-531220.125
-538740.9375
-548549.5625
-558964.625
-568191.625
-574852.8125
-578308.5
-578664.5625
-576506.625
-572524.25
-567222.5
-560855.5625
-553588.1875
-545760.9375
-538076.875
-531563.9375
-527285.75
-525914.4375
-527366.5
-530695.6875
-534329.1875
-536579.0625
-536230.1875
-532962.5625
-527431.75
-520977.875
-515089.3125
-510847.75
-508578.3125
-507829.1875
-507660.8125
-507097.625
-505542.3125
-502991.5625
-499990.6875
-497380.875
-495964.0
-496223.125
-498185.0
-501438.9375
-505267.6875
-508821.6875
-511284.75
-512008.375
-510615.375
-507074.875
-501732.375
-495269.875
-488574.125
-482530.25
-477796.625
-474648.4375
-472962.25
-472361.375
-472465.75
-473133.3125
-474571.4375
-477249.1875
-481635.75
-487878.25
-495573.25
-503753.6875
-511118.8125
-516426.25
-518887.875
-518408.3125
-515578.5
-511442.5625
-507154.5
-503672.6875
-501601.625
-501201.25
-502496.3125
-505376.9375
-509611.125
-514768.1875
-520131.4375
-524714.3125
-527454.25
-527562.5625
-524903.625
-520222.0625
-515069.5625
-511396.4375
-510921.0625
-514504.375
-521776.375
-531179.375
-540430.4375
-547243.3125
-550047.8125
-548449.9375
-543283.3125
-536258.6875
-529364.1875
-524240.25
-521736.0
-521763.9375
-523453.0
-525503.8125
-526608.25
-525806.4375
-522700.4375
-517501.625
-510930.0
-504010.5
-497820.875
-493249.5625
-490818.125
-490609.125
-492313.1875
-495369.3125
-499137.875
-503031.8125
-506554.3125
-509243.4375
-510583.5625
-509974.5
-506832.6875
-500827.5
-492165.6875
-481778.3125
-471269.9375
-462579.1875
-457432.3125
-456789.3125
-460515.5
-467439.1875
-475790.9375
-483846.5625
-490490.125
-495443.1875
-499060.9375
-501809.75
-503710.1875
-504061.0
-501632.6875
-495282.6875
-484715.375
-471001.1875
-456548.5
-444459.9375
-437494.8125
-437062.3125
-442684.5
-452173.9375
-462460.4375
-470713.5
-475280.625
-476057.5
-474177.625
-471224.5
-468380.8125
-465929.6875
-463326.375
-459755.6875
-454844.0
-449118.0625
-443940.0
-440924.75
-441118.9375
-444357.3125
-449138.875
-453118.1875
-454012.1875
-450521.6875
-442858.1875
-432653.0
-422311.25
-414117.0625
-409487.0
-408667.4375
-410937.875
-415144.25
-420253.25
-425655.25
-431114.8125
-436476.1875
-441361.1875
-445088.8125
-446899.875
-446381.875
-443854.0
-440469.3125
-437923.9375
-437860.125
-441209.875
-447768.8125
-456191.0
-464407.8125
-470292.625
-472300.625
-469851.125
-463354.875
-453949.25
-443107.1875
-432291.0
-422743.625
-415405.8125
-410882.8125
-409391.4375
-410685.5625
-414027.8125
-418298.125
-422274.625
-425019.375
-426213.5
-426267.5
-426117.9375
-426770.3125
-428785.8125
-431962.0625
-435379.1875
-437810.1875
-438305.0625
-436657.3125
-433504.875
-429994.75
-427165.9375
-425361.0
-423984.9375
-421765.25
-417419.8125
-410419.1875
-401459.75
-392382.1875
-385525.625
-382780.6875
-384760.4375
-390467.625
-397618.0
-403483.75
-405892.25
-403957.0
-398252.375
-390406.6875
-382340.6875
-375514.0625
-370493.5625
-366975.25
-364164.5625
-361270.5625
-357861.0625
-353945.6875
-349824.0625
-345858.8125
-342344.5
-339543.0625
-337818.5625
-337713.8125
-339829.9375
-344493.625
-351355.25
-359155.0
-365862.25
-369228.8125
-367583.5
-360536.625
-349258.0
-336152.3125
-324021.125
-315041.8125
-309994.6875
-308072.625
-307352.5
-305711.625
-301775.125
-295470.125
-287951.5
-280952.5
-275875.5
-273044.875
-271459.5625
-269145.125
-263938.375
-254355.8125
-240183.0
-222562.75
-203587.875
-185597.6875
-170469.0625
-159145.4375
-151512.0
-146572.25
-142787.375
-138433.0625
-131886.3125
-121832.625
-107424.3125
-88410.5
-65214.3125
-38895.3125
-10943.625
17086.4375
44015.1875
69397.9375
93669.25
118006.5625
143965.8125
173039.6875
206314.3125
244346.5
287271.125
335039.6875
387640.9375
445184.125
507821.4375
575587.75
648290.625
725555.5625
807042.125
892738.0625
983178.4375
1079460.5
1183021.125
1295266.6875
1417229.875
1549423.125
1691966.1875
1844931.0625
2008732.625
2184366.25
2373363.5625
2577470.625
2798190.9375
3036399.6875
3292202.25
3565096.1875
3854350.5625
4159422.375
4480220.125
4817105.6875
5170653.1875
5541293.4375
5929013.1875
6333236.375
6752914.5
7186752.25
7633435.625
8091742.875
8560485.0
9038306.875
9523436.5
1.001347525E7
1.05052849375E7
1.09949705E7
1.14779188125E7
1.1948853875E7
1.24018959375E7
1.28306546875E7
1.32284014375E7
1.358835325E7
1.39040563125E7
1.416980925E7
1.4381040375E7
1.4534563875E7
1.4628682E7
1.4663147125E7
1.463903025E7
1.4558543E7
1.44248363125E7
1.4241774625E7
1.40136755E7
1.37450260625E7
1.3440223E7
1.31034068125E7
1.27384503125E7
1.2349108875E7
1.1939264125E7
1.1513133875E7
1.10753134375E7
1.063057225E7
1.01834384375E7
9737712.25
9296106.375
8860181.875
8430637.4375
8007862.3125
7592545.0625
7186097.375
6790720.25
6409088.9375
6043788.9375
5696740.0625
5368842.0625
5059976.625
4769343.1875
4495966.6875
4239150.3125
3998685.25
3774749.1875
3567569.125
3377031.8125
3202443.6875
3042574.125
2895985.625
2761526.4375
2638784.5625
2528309.6875
2431496.25
2350149.625
2285875.75
2239501.6875
2210723.25
2198096.5625
2199372.3125
2212059.8125
2234038.0625
2264027.875
2301797.1875
2348069.75
2404206.3125
2471793.3125
2552284.75
2646797.25
2756080.9375
2880609.125
3020691.6875
3176523.5625
3348138.25
3535306.25
3737465.75
3953770.8125
4183283.5625
4425250.5625
4679334.8125
4945662.5
5224608.625
5516360.6875
5820418.5625
6135248.125
6458267.0
6786215.1875
7115795.4375
7444339.0
7770226.0625
8092881.875
8412352.25
8728645.0
9041127.0625
9348238.375
9647631.875
9936646.9375
1.02128675625E7
1.04744828125E7
1.0720274375E7
1.094925E7
1.11601294375E7
1.1350971375E7
1.15191638125E7
1.1661818625E7
1.17763974375E7
1.18612691875E7
1.1915916625E7
1.19406800625E7
1.193615675E7
1.19025608125E7
1.18393834375E7
1.1745562125E7
1.16201179375E7
1.14629799375E7
1.127560075E7
1.10610391875E7
1.08234176875E7
1.05669513125E7
1.02949489375E7
1.000921475E7
9710110.0625
9397244.75
9070497.3125
8730920.25
8381151.8125
8025174.9375
7667551.0
7312465.875
6962978.125
6620740.625
6286238.4375
5959367.1875
5640056.75
5328671.9375
5026064.3125
4733325.0625
4451415.25
4180872.0
3921713.75
3673548.75
3435795.25
3207893.75
2989433.1875
2780188.125
2580118.375
2389385.3125
2208391.4375
2037791.875
1878398.8125
1730936.9375
1595689.875
1472167.625
1358960.875
1253901.0
1154525.125
1058702.875
965191.125
873889.0625
785680.0625
701916.5
623757.125
551628.75
485027.375
422724.0625
363267.1875
305551.6875
249212.5
194692.125
142978.875
95153.5625
51942.4375
13449.6875
-20857.5625
-51947.9375
-80920.8125
-108720.5625
-135948.5625
-162786.75
-189003.9375
-214007.8125
-236933.75
-256788.5625
-272669.4375
-284044.5
-291023.1875
-294508.1875
-296123.875
-297886.25
-301680.0
-308705.125
-319093.5625
-331851.5
-345171.5625
-357017.3125
-365778.875
-370770.3125
-372401.125
-371979.0625
-371235.8125
-371754.1875
-374496.5625
-379573.5625
-386300.0625
-393485.6875
-399846.5625
-404407.625
-406789.75
-407316.875
-406928.9375
-406923.4375
-408585.4375
-412793.4375
-419705.4375
-428626.125
-438120.75
-446371.5625
-451689.375
-453024.1875
-450299.3125
-444441.0
-437081.625
-430037.6875
-424754.75
-421928.125
-421433.9375
-422576.5
-424524.75
-426734.0
-429165.1875
-432215.0
-436407.0
-442004.0625
-448734.6875
-455767.625
-461947.0625
-466180.0
-467801.8125
-466765.25
-463589.9375
-459124.9375
-454255.4375
-449693.1875
-445923.125
-443284.3125
-442082.25
-442622.3125
-445107.875
-449444.5625
-455072.0625
-460956.8125
-465818.1875
-468540.875
-468618.3125
-466426.4375
-463176.375
-460526.875
-459985.75
-462337.5625
-467334.3125
-473786.125
-480019.875
-484517.75
-486471.375
-486024.3125
-484112.25
-481982.5
-480608.25
-480250.6875
-480348.375
-479768.375
-477299.6875
-472173.875
-464402.375
-454807.4375
-444760.625
-435757.8125
-429010.75
-425203.75
-424475.375
-426582.0625
-431130.8125
-437761.5625
-446206.875
-456230.5625
-467511.125
-479555.75
-491706.0625
-503243.5625
-513547.875
-522237.0
-529229.5625
-534712.125
-539039.4375
-542621.625
-545848.6875
-549069.3125
-552603.875
-556745.375
-561711.375
-567540.5
-573972.875
-580383.0
-585828.5
-589241.875
-589730.3125
-586892.25
-581037.4375
-573214.4375
-565011.5
-558175.375
-554156.5625
-553723.0625
-556759.8125
-562315.25
-568874.1875
-574769.125
-578603.3125
-579568.0
-577573.75
-573182.0
-567379.5625
-561279.75
-555842.75
-551690.375
-549051.625
-547831.4375
-547758.625
-548549.4375
-550026.1875
-552153.125
-554985.3125
-558562.125
-562798.5625
-567426.8125
-572020.0625
-576091.9375
-579229.9375
-581201.125
-581978.375
-581670.375
-580386.5
-578106.4375
-574629.375
-569649.9375
-562945.625
-554602.375
-545168.0625
-535641.1875
-527262.625
-521164.125
-517999.375
-517704.75
-519495.4375
-522112.6875
-524234.25
-524894.125
-523754.5
-521138.8125
-517836.125
-514778.5625
-512735.9375
-512139.0625
-513070.0
-515368.5
-518757.3125
-522902.25
-527386.875
-531655.25
-535015.5625
-536772.625
-536476.125
-534180.75
-530566.8125
-526806.25
-524167.875
-523500.375
-524820.75
-527229.3125
-529244.0
-529453.9375
-527220.25
-523093.25
-518712.1875
-516172.1875
-517098.6875
-521828.125
-529082.625
-536331.375
-540730.75
-540266.375
-534609.875
-525307.75
-515204.0
-507333.3125
-503757.8125
-504846.0
-509291.9375
-514841.5625
-519375.125
-521846.5625
-522659.625
-523333.3125
-525643.5
-530664.6875
-538172.3125
-546681.8125
-554094.75
-558639.25
-559660.0
-557899.0625
-555152.125
-553475.75
-554316.1875
-557943.5
-563414.125
-569030.75
-573052.875
-574326.6875
-572581.75
-568327.375
-562476.25
-555929.4375
-549328.0625
-543052.3125
-537390.375
-532712.9375
-529501.0
-528183.5
-528872.9375
-531165.625
-534155.4375
-536698.625
-537833.1875
-537162.875
-535023.875
-532354.0
-530326.0
-529915.5
-531593.8125
-535258.0
-540383.875
-546280.125
-552292.0625
-557862.9375
-562471.75
-565556.125
-566545.375
-565056.625
-561182.8125
-555707.875
-550072.625
-546016.6875
-544984.25
-547527.75
-552989.0
-559644.9375
-565310.375
-568177.125
-567546.4375
-564139.5
-559842.9375
-556989.875
-557473.5625
-562055.9375
-570135.125
-580028.0
-589604.75
-596981.75
-600996.0
-601320.1875
-598262.875
-592433.875
-584479.9375
-575010.5625
-564693.875
-554392.0
-545182.625
-538189.25
-534266.5625
-533688.25
-536004.5625
-540155.5625
-544801.375
-548717.3125
-551075.5625
-551501.25
-549921.5
-546336.625
-540683.375
-532892.5625
-523117.6875
-511987.9375
-500698.5625
-490820.0
-483853.5
-480709.5625
-481353.75
-484805.1875
-489515.4375
-493970.375
-497243.125
-499246.625
-500580.0625
-502064.5625
-504219.5
-506955.6875
-509642.9375
-511508.75
-512139.375
-511794.5
-511334.875
-511769.8125
-513642.5625
-516581.4375
-519286.5625
-520017.6875
-517395.25
-511150.4375
-502454.8125
-493632.25
-487335.625
-485520.875
-488655.3125
-495504.125
-503589.8125
-510128.875
-513049.8125
-511679.1875
-506843.0
-500392.9375
-494407.75
-490429.375
-489036.9375
-489876.9375
-492053.5
-494639.75
-497059.1875
-499195.25
-501245.75
-503466.25
-505976.1875
-508732.1875
-511651.1875
-514766.3125
-518274.5625
-522404.5625
-527148.75
-532004.75
-535897.0
-537378.6875
-535082.8125
-528260.0
-517179.125
-503205.375
-488495.9375
-475409.9375
-465844.0625
-460734.1875
-459888.875
-462188.1875
-466043.6875
-469929.6875
-472795.75
-474240.1875
-474430.0625
-473848.4375
-472995.125
-472160.5625
-471340.25
-470292.8125
-468693.375
-466309.75
-463134.875
-459432.0625
-455683.625
-452461.75
-450262.0
-449351.125
-449677.25
-450873.5625
-452360.0625
-453512.375
-453842.125
-453127.0625
-451445.0625
-449105.875
-446514.5625
-444026.625
-441853.5
-440045.9375
-438540.5625
-437221.5
-435948.1875
-434527.5625
-432655.125
-429886.0625
-425693.625
-419635.6875
-411580.875
-401892.75
-391458.875
-381499.4375
-373182.5
-367172.625
-363289.75
-360438.4375
-356868.3125
-350696.25
-340509.75
-325830.4375
-307267.875
-286318.5
-264900.6875
-244814.1875
-227323.6875
-212992.9375
-201778.6875
-193283.375
-187019.9375
-182564.6875
-179559.0625
-177609.3125
-176183.625
-174597.125
-172112.9375
-168111.1875
-162233.4375
-154419.0625
-144806.9375
-133553.1875
-120659.5
-105904.0625
-88907.375
-69288.0625
-46810.75
-21429.8125
6807.875
37949.0
72294.0625
110412.4375
152959.625
200355.0625
252474.3125
308538.375
367319.5
427646.8125
489044.75
552243.9375
619319.9375
693342.75
777613.5625
874743.9375
985916.125
1110614.4375
1246945.25
1392438.3125
1545036.375
1703906.0625
1869776.9375
2044700.25
2231347.25
2432137.25
2648539.625
2880808.625
3128224.625
3389710.4375
3664547.3125
3952888.75
4255867.1875
4575263.4375
4912887.875
5269932.625
5646554.375
6041839.125
6454136.375
6881598.625
7322679.0
7776369.125
8242070.125
8719145.75
9206335.75
9701259.8125
1.02002009375E7
1.069824125E7
1.1189683875E7
1.16685936875E7
1.2129258375E7
1.256642625E7
1.297528425E7
1.33512509375E7
1.3689731E7
1.39859828125E7
1.4235189375E7
1.44327369375E7
1.45746226875E7
1.46578755E7
1.46808825E7
1.46435614375E7
1.45473725E7
1.43951975625E7
1.4191125125E7
1.3940163875E7
1.36478980625E7
1.3320098375E7
1.2962327125E7
1.25796045E7
1.21762149375E7
1.17557093125E7
1.13211006875E7
1.08751790625E7
1.04208183125E7
9961146.8125
9499509.625
9039241.5
8583362.0625
8134341.3125
7694055.4375
7263957.25
6845377.25
6439794.5625
6048918.5
5674505.5625
5317964.0625
4979913.0
4659906.0625
4356476.3125
4067527.625
3790949.625
3525229.875
3269834.1875
3025218.0
2792484.1875
2572842.0625
2367093.3125
2175337.25
1996982.9375
1831015.4375
1676368.9375
1532234.3125
1398184.5625
1274097.8125
1159948.125
1055573.0
960509.125
873934.0625
794695.8125
721390.25
652463.0
586343.1875
521638.75
457400.0
393404.0
330352.6875
269853.3125
214096.9375
165260.6875
124788.1875
92796.875
67853.125
47246.5
27709.75
6351.4375
-18528.5
-47034.625
-77820.4375
-108705.8125
-137510.625
-162777.4375
-184124.375
-202139.25
-217920.75
-232504.4375
-246429.1875
-259603.875
-271480.125
-281400.25
-288931.875
-294041.6875
-297064.6875
-298537.5
-299020.125
-299011.6875
-298983.5625
-299468.3125
-301096.5
-304503.0625
-310106.6875
-317860.125
-327114.1875
-336707.375
-345293.1875
-351797.8125
-355820.25
-357795.0
-358829.1875
-360270.1875
-363180.6875
-367942.5
-374155.1875
-380862.75
-386997.0625
-391832.0
-395248.625
-397704.1875
-399940.5
-402584.75
-405838.9375
-409401.0
-412643.75
-414950.375
-416031.4375
-416061.625
-415565.25
-415104.9375
-414928.0
-414750.6875
-413803.125
-411137.9375
-406084.375
-398653.0625
-389705.9375
-380793.9375
-373696.625
-369819.625
-369671.5
-372619.4375
-377029.6875
-380760.4375
-381850.8125
-379176.5
-372850.0
-364227.625
-355515.3125
-349098.1875
-346809.6875
-349375.9375
-356208.875
-365606.8125
-375282.875
-383036.4375
-387341.625
-387666.625
-384440.3125
-378715.1875
-371680.9375
-364227.3125
-356720.375
-349057.0625
-340945.875
-332266.0
-323332.875
-314944.375
-308180.375
-304037.3125
-303048.0
-305042.125
-309138.5625
-313968.0
-318030.5
-320054.3125
-319234.875
-315300.9375
-308430.0625
-299094.4375
-287922.3125
-275629.5625
-263012.9375
-250953.5
-240365.5
-232057.75
-226530.3125
-223779.75
-223204.5625
-223674.1875
-223765.0
-222095.9375
-217654.3125
-210001.4375
-199295.375
-186138.5
-171322.625
-155575.9375
-139402.125
-123051.75
-106603.4375
-90086.875
-73568.9375
-57151.0625
-40877.4375
-24602.25
-7887.3125
10007.75
30022.0625
53106.625
80024.1875
111212.3125
146762.5625
186519.375
230250.8125
277813.9375
329242.5
384718.875
444449.9375
508513.1875
576758.4375
648831.875
724336.8125
803079.75
885304.4375
971808.625
1063875.125
1163024.3125
1270669.9375
1387809.375
1514876.375
1651824.125
1798415.9375
1954611.8125
2120895.0625
2298398.25
2488766.5625
2693800.0625
2915007.9375
3153245.1875
3408570.9375
3680380.6875
3967759.375
4269917.0625
4586547.5625
4917983.75
5265109.1875
5629072.5625
6010912.6875
6411212.6875
6829867.9375
7265994.6875
7717953.875
8183438.25
8659576.875
9143030.625
9630075.25
1.011667575E7
1.059854675E7
1.1071184625E7
1.15298538125E7
1.19695333125E7
1.23848579375E7
1.27701184375E7
1.31193854375E7
1.34267903125E7
1.36869343125E7
1.38953391875E7
1.40488180625E7
1.41456610625E7
1.41855921875E7
1.4169534E7
1.4099283E7
1.39772171875E7
1.3806124125E7
1.35891644375E7
1.33299179375E7
1.30324199375E7
1.27011109375E7
1.2340679125E7
1.1955838375E7
1.15511235625E7
1.11307765625E7
1.06987444375E7
1.02587520625E7
9814370.1875
9369010.875
8925832.0625
8487598.5625
8056584.5625
7634589.625
7223078.0625
6823371.5625
6436778.125
6064556.3125
5707695.5
5366603.75
5040875.0
4729306.0
4430239.9375
4142160.625
3864319.5625
3597125.8125
3342094.625
3101328.5
2876707.0625
2669105.5625
2477970.4375
2301439.375
2136964.4375
1982178.125
1835631.5
1697090.9375
1567273.9375
1447154.125
1337156.875
1236610.5625
1143701.25
1055950.6875
971005.75
887399.0
804962.0625
724736.9375
648452.9375
577812.0625
513885.1875
456842.1875
406069.25
360555.6875
319332.875
281765.1875
247598.25
216808.375
189390.0
165227.3125
144122.0625
125942.8125
110778.5
98971.5
90971.5625
87055.0
87041.5
90157.25
95138.25
100557.0625
105252.9375
108696.8125
111146.3125
113538.5625
117173.625
123317.9375
132872.8125
146204.875
163161.0
183219.125
205696.5625
229949.625
255530.6875
282303.6875
310525.375
340883.8125
374466.6875
412628.6875
456753.6875
507962.3125
566857.6875
633417.375
707098.1875
787141.25
872975.6875
964569.25
1062585.5
1168285.1875
1283218.4375
1408844.375
1546243.5
1696040.4375
1858549.6875
2034050.875
2223034.4375
2426278.5
2644701.375
2879052.875
3129597.5
3395960.875
3677248.125
3972423.5625
4280820.3125
4602580.6875
4938841.375
5291568.5
5663076.9375
6055380.875
6469575.25
6905426.5
7361266.4375
7834176.9375
8320365.9375
8815594.5625
9315529.9375
9815946.6875
1.0312764125E7
1.0801954125E7
1.1279380875E7
1.1740635375E7
1.21809146875E7
1.25949831875E7
1.297723775E7
1.33218860625E7
1.36232330625E7
1.3876045875E7
1.40759448125E7
1.42197506875E7
1.4305715875E7
1.43335850625E7
1.43044715625E7
1.42205808125E7
1.40848523125E7
1.3900614E7
1.3671333625E7
1.3400520375E7
1.30917764375E7
1.2748949E7
1.2376296125E7
1.19785699375E7
1.1560947E7
1.11287869375E7
1.068726375E7
1.0240968E7
9793603.0625
9347877.3125
8905633.25
8468173.875
8036668.8125
7612491.375
7197357.3125
6793215.5625
6401941.5
6024970.875
5663043.5625
5316183.0625
4983938.375
4665792.5625
4361560.5625
4071587.75
3796640.875
3537513.25
3294501.9375
3066985.75
2853309.3125
2651061.875
2457680.1875
2271165.25
2090646.875
1916582.9375
1750516.875
1594486.3125
1450302.3125
1318954.8125
1200336.0625
1093339.5
996246.9375
907224.5
824735.0
747740.5625
675678.25
608286.375
545407.9375
486875.75
432523.0
382280.5
336275.1875
294837.5625
258372.875
227115.0
200848.3125
178709.5
159168.6875
140235.3125
119860.0
96432.4375
69231.3125
38678.0625
6291.625
-25678.8125
-54865.25
-79468.625
-98812.9375
-113572.625
-125573.125
-137202.5625
-150614.4375
-166989.6875
-186126.9375
-206522.625
-225927.125
-242182.25
-254029.125
-261578.25
-266260.625
-270279.0
-275773.9375
-284030.8125
-295027.625
-307481.875
-319348.9375
-328552.0
-333648.3125
-334190.4375
-330689.8125
-324260.125
-316137.1875
-307288.3125
-298245.8125
-289171.75
-280053.875
-270893.0
-261783.4375
-252873.125
-244271.0
-235992.6875
-228000.6875
-220317.6875
-213132.25
-206804.9375
-201740.1875
-198174.875
-196003.0
-194758.3125
-193802.0
-192647.5
-191259.375
-190144.5
-190140.0625
-191949.0625
-195620.3125
-200229.3125
-203952.25
-204557.5625
-200142.4375
-189811.6875
-174002.125
-154303.375
-132848.1875
-111541.1875
-91465.0
-72714.4375
-54699.25
-36729.4375
-18560.625
-603.625
16324.875
31592.4375
45380.0625
59011.9375
74778.0
95284.8125
122599.5625
157566.5
199605.4375
247088.75
298129.9375
351431.875
406818.875
465228.8125
528191.75
597053.875
672314.625
753380.5
838840.125
927126.0
1017261.5625
1109367.25
1204723.625
1305393.0
1413587.1875
1531061.6875
1658770.875
1796884.875
1945100.1875
2103065.9375
2270730.1875
2448479.0
2637057.5
2837353.9375
3050166.0
3276038.125
3515196.0625
3767546.375
4032690.6875
4309926.1875
4598244.875
4896374.5
5202890.75
5516391.8125
5835674.0
6159821.5
6488147.0625
6819984.9375
7154411.625
7490019.5
7824856.625
8156578.6875
8482761.375
8801244.375
9110356.25
9408918.5625
9696026.375
9970705.1875
1.023160275E7
1.04768634375E7
1.07042521875E7
1.0911486625E7
1.1096643125E7
1.1258466125E7
1.139644725E7
1.151063175E7
1.16012160625E7
1.1668085375E7
1.17104630625E7
1.17268110625E7
1.17150348125E7
1.167295E7
1.159888075E7
1.14922165625E7
1.1353759375E7
1.11857465E7
1.099152275E7
1.07749348125E7
1.05396081875E7
1.028831275E7
1.0022611125E7
9742910.75
9448917.9375
9140361.1875
8817749.375
8482904.5
8139070.0625
7790534.6875
7441878.375
7097085.5
6758821.3125
6428116.6875
6104560.9375
5786925.125
5473987.625
5165272.8125
4861455.375
4564315.8125
4276295.3125
3999835.5
3736745.8125
3487812.0
3252751.125
3030491.25
2819642.5
2618978.0
2427762.1875
2245837.6875
2073478.0
1911094.125
1758926.5625
1616843.3125
1484313.3125
1360549.1875
1244742.9375
1136282.0625
1034839.3125
940286.5
852461.8125
770897.75
694653.3125
622369.9375
552584.25
484214.75
417037.5625
351934.875
290756.5
235777.625
188905.0
150913.9375
121020.75
96990.875
75780.8125
54496.875
31309.125
5964.9375
-20301.0625
-45421.0
-67436.0
-85335.875
-99452.875
-111262.875
-122705.1875
-135337.625
-149701.0
-165161.5625
-180274.5
-193479.75
-203801.875
-211245.5625
-216737.75
-221683.375
-227373.25
-234528.1875
-243168.125
-252815.625
-262877.0
-272967.9375
-283009.3125
-293065.625
-303058.875
-312568.4375
-320885.8125
-327346.5625
-331789.9375
-334895.5625
-338172.5625
-343530.125
-352563.9375
-365851.0625
-382575.25
-400678.9375
-417515.3125
-430752.8125
-439169.5
-443019.125
-443835.8125
-443781.9375
-444827.125
-448096.5
-453623.875
-460551.0
-467618.1875
-473688.125
-478069.5
-480540.625
-481136.875
-479878.0
-476621.25
-471131.9375
-463329.3125
-453553.9375
-442685.875
-432013.6875
-422884.75
-416285.4375
-412540.3125
-411271.75
-411637.875
-412738.9375
-414007.3125
-415407.875
-417369.25
-420492.25
-425180.0625
-431361.25
-438425.6875
-445390.3125
-451212.0625
-455108.4375
-456759.625
-456329.5
-454329.0
-451404.6875
-448153.5
-445031.0
-442366.5625
-440444.625
-439586.75
-440179.5625
-442624.3125
-447224.25
-454051.4375
-462842.75
-472963.625
-483459.3125
-493188.375
-501017.875
-506040.5625
-507767.25
-506244.625
-502059.625
-496219.4375
-489930.375
-484337.5625
-480304.8125
-478303.625
-478441.5
-480601.75
-484621.625
-490416.9375
-497989.875
-507310.9375
-518134.6875
-529845.875
-541427.625
-551594.8125
-559058.6875
-562831.125
-562456.0
-558085.375
-550387.3125
-540339.4375
-529001.5
-517351.75
-506220.25
-496295.25
-488137.75
-482149.5
-478482.4375
-476937.875
-476937.0625
-477629.8125
-478146.125
-477913.75
-476908.3125
-475704.375
-475267.125
-476537.125
-479963.0625
-485184.3125
-491020.875
-495811.125
-497993.625
-496714.5625
-492220.375
-485865.3125
-479712.5
-475863.8125
-475761.25
-479713.5
-486812.6875
-495259.9375
-502967.6875
-508213.5625
-510119.0625
-508804.125
-505199.4375
-500619.0625
-496270.4375
-492880.75
-490555.75
-488889.125
-487248.625
-485109.375
-482300.3125
-479078.125
-476011.125
-473732.5
-472665.4375
-472831.5625
-473819.6875
-474928.875
-475434.5625
-474876.875
-473259.5625
-471078.375
-469162.5
-468382.625
-469335.125
-472120.625
-476302.0
-481054.0625
-485441.0
-488708.25
-490473.0625
-490747.3125
-489802.5625
-487960.25
-485418.5
-482205.125
-478276.8125
-473704.8125
-468836.0
-464321.0
-460962.6875
-459430.3125
-459960.0625
-462187.3125
-465210.25
-467882.9375
-469230.5
-468812.5625
-466871.6875
-464192.3125
-461722.375
-460120.1875
-459432.125
-459054.1875
-458010.25
-455435.8125
-451056.1875
-445440.5625
-439899.5625
-436044.1875
-435169.3125
-437706.9375
-442971.0
-449303.75
-454573.75
-456838.875
-454930.4375
-448756.0625
-439237.8125
-427946.625
-416600.875
-406625.125
-398909.8125
-393805.8125
-391282.125
-391116.8125
-393004.9375
-396538.125
-401097.125
-405760.875
-409334.0625
-410539.5
-408331.25
-402214.3125
-392435.25
-379951.8125
-366181.125
-352616.5
-340458.8125
-330394.375
-322583.625
-316827.0625
-312802.75
-310247.0
-308997.5625
-308898.4375
-309646.875
-310697.8125
-311311.5625
-310750.8125
-308546.8125
-304699.6875
-299695.1875
-294299.25
-289199.6875
-284647.1875
-280265.125
-275131.0625
-268115.375
-258341.0
-245567.1875
-230326.375
-213750.5
-197163.25
-181621.25
-167611.625
-155039.25
-143497.8125
-132682.8125
-122730.0
-114294.5
-108303.375
-105474.0625
-105809.125
-108305.125
-111032.25
-111586.8125
-107759.1875
-98167.0
-82615.75
-62062.5
-38217.6875
-12956.5625
12229.125
36550.9375
59939.8125
82816.375
105759.9375
129236.9375
153489.4375
178588.625
204578.25
231600.6875
259924.8125
289861.625
321617.5625
355167.0625
390214.8125
426267.0625
462782.375
499338.9375
535759.875
572169.0
608983.625
646871.4375
686691.875
729421.6875
776047.8125
827413.875
884036.9375
945949.75
1012645.5
1083188.625
1156497.3125
1231729.5
1308642.0
1387782.3125
1470424.9375
1558262.1875
1652961.75
1755763.5625
1867275.5625
1987541.0
2116333.75
2253536.125
2399421.375
2554710.8125
2720387.125
2897361.375
3086164.0
3286819.75
3498978.0
3722244.25
3956557.4375
4202422.9375
4460871.1875
4733127.25
5020111.25
5321966.3125
5637809.875
5965812.125
6303572.9375
6648645.4375
6998994.5625
7353210.125
7710393.125
8069765.4375
8430158.375
8789574.125
9144976.75
9492374.8125
9827147.8125
1.01444880625E7
1.04398071875E7
1.070899175E7
1.09484715E7
1.1155142125E7
1.13262395625E7
1.145926775E7
1.155204575E7
1.1602876E7
1.161077875E7
1.15757018125E7
1.1498623125E7
1.13815010625E7
1.122708275E7
1.10386298125E7
1.08196430625E7
1.05736561875E7
1.03041340625E7
1.00144598125E7
9707963.0625
9387928.5
9057545.375
8719798.625
8377341.375
8032411.0
7686837.875
7342161.0625
6999810.9375
6661285.1875
6328235.625
6002417.625
5685511.75
5378885.75
5083397.9375
4799332.125
4526501.25
4264484.9375
4012905.4375
3771629.1875
3540810.375
3320763.5
3111731.125
2913660.25
2726100.75
2548285.0625
2379364.6875
2218703.5
2066096.8125
1921808.3125
1786392.25
1660360.4375
1543822.25
1436243.4375
1336429.25
1242750.6875
1153541.875
1067532.75
984168.625
903712.75
827106.125
755640.0
690552.1875
632672.625
582210.6875
538722.0
501232.375
468456.5625
439035.3125
411731.9375
385559.75
359842.9375
334233.0625
308704.5625
283537.8125
259282.5625
236680.3125
216531.625
199512.9375
185978.125
175804.0625
168344.875
162536.75
157147.0
151104.8125
143806.9375
135283.625
126146.625
117318.0
109623.125
103396.625
98259.6875
93174.6875
86780.625
77903.5625
66056.5625
51738.9375
36411.0625
22140.6875
11041.1875
4698.5
3784.25
7977.625
16197.0
27029.8125
39188.75
51829.875
64645.5625
77741.125
91387.5
105774.375
120863.75
136385.4375
151946.8125
167190.8125
181928.25
196201.6875
210272.0625
224551.5
239515.25
255616.25
273217.3125
292546.1875
313682.4375
336588.6875
361193.3125
387511.0
415764.125
446444.875
480271.375
518024.0625
560311.25
607358.0
658925.375
714423.875
773203.3125
834910.0
899755.75
968562.1875
1042534.375
1122840.3125
1210173.6875
1304499.375
1405115.25
1511028.0625
1621497.9375
1736524.3125
1857064.5625
1984889.75
2122138.9375
2270761.5
2432076.5625
2606610.875
2794239.375
2994514.8125
3206997.4375
3431425.1875
3667670.5625
3915560.5625
4174716.75
4444556.5625
4724497.8125
5014274.375
5314175.625
5625030.25
5947858.4375
6283280.0625
6630903.4375
6988956.5625
7354340.75
7723108.8125
8091187.8125
8455055.125
8812096.0
9160512.9375
9498849.625
9825354.625
1.0137466E7
1.0431626375E7
1.07034840625E7
1.0948370125E7
1.1161846E7
1.13401233125E7
1.148025525E7
1.15801250625E7
1.1638349375E7
1.165422075E7
1.16277534375E7
1.1559796E7
1.14521129375E7
1.13073333125E7
1.11287369375E7
1.091994E7
1.0684607E7
1.04263071875E7
1.01485565E7
9854974.875
9549411.5
9235892.375
8918330.0
8600071.5625
8283472.0625
7969706.75
7658959.0
7350959.75
7045695.125
6744005.1875
6447825.8125
6159967.0
5883509.75
5621064.0625
5374184.3125
5143168.125
4927301.625
4725431.3125
4536618.875
4360620.5625
4198021.0625
4050005.6875
3917894.4375
3802643.0625
3704503.1875
3622953.1875
3556898.0625
3505044.5
3466314.0625
3440166.8125
3426757.6875
3426906.25
3441907.25
3473240.75
3522252.5
3589876.4375
3676465.25
3781777.9375
3905137.8125
4045730.625
4202961.5625
4376761.0625
4567731.625
4777072.0
5006288.0625
5256771.25
5529373.125
5824102.625
6140027.3125
6475386.875
6827860.875
7194894.5625
7573986.9375
7962875.875
8359594.875
8762407.9375
9169642.75
9579445.875
9989488.5625
1.039666825E7
1.07968715625E7
1.11848814375E7
1.1554497375E7
1.18988938125E7
1.2211168E7
1.248496125E7
1.27150016875E7
1.28974368125E7
1.302989675E7
1.31113243125E7
1.31416840625E7
1.312168725E7
1.30526294375E7
1.29363595625E7
1.27753200625E7
1.2572561125E7
1.23316565E7
1.2056514875E7
1.1751155875E7
1.14195530625E7
1.1065618E7
1.06933206875E7
1.030685225E7
9910689.875
9509451.25
9107523.3125
8708571.8125
8315123.625
7928412.875
7548589.5625
7175237.375
6808013.8125
6447165.375
6093724.0
5749330.4375
5415790.4375
5094581.8125
4786534.8125
4491810.625
4210152.1875
3941252.9375
3685044.5
3441763.5
3211785.125
2995339.5625
2792285.125
2602076.875
2423951.5
2257222.4375
2101508.75
1956749.375
1822968.125
1699901.4375
1586690.5625
1481833.5
1383470.3125
1289910.4375
1200170.3125
1114261.8125
1033069.4375
957842.6875
889516.1875
828167.625
772872.0
722035.3125
674065.1875
628067.75
584233.8125
543709.4375
507978.75
478021.375
453623.0
433170.6875
414060.8125
393582.0
369920.6875
342873.9375
313965.625
285906.3125
261602.9375
243106.5
230900.5625
223788.0625
219388.875
215022.6875
208621.0
199327.25
187596.625
174819.25
162670.3125
152471.0
144802.6875
139478.6875
135821.0
133070.75
130732.625
128714.0
127228.4375
126545.375
126724.875
127470.0625
128164.875
128076.6875
126635.875
123676.875
119550.0625
115067.4375
111306.875
109343.0625
109985.8125
113592.5625
119993.125
128531.9375
138210.25
147895.0
156551.4375
163454.1875
168329.375
171390.3125
173251.6875
174738.375
176641.25
179493.875
183444.8125
188269.25
193513.4375
198715.6875
203613.75
208256.25
212974.625
218233.6875
224431.4375
231741.625
240073.1875
249165.125
258774.6875
268870.625
279741.9375
291968.125
306261.6875
323246.4375
343263.125
366273.875
391891.6875
419502.875
448420.4375
478005.625
507732.6875
537213.125
566226.4375
594794.375
623298.8125
652591.5625
684015.5625
719269.125
760101.5
807906.625
863346.3125
926147.3125
995169.8125
1068750.3125
1145216.1875
1223402.5
1302999.125
1384621.8125
1469605.875
1559622.375
1656272.5
1760805.25
1874038.0625
1996471.0625
2128512.0625
2270698.25
2423821.75
2588916.625
2767127.4375
2959519.4375
3166904.6875
3389744.3125
3628159.5
3882052.375
4151315.125
4436081.25
4736959.5625
5055179.0625
5392581.375
5751427.3125
6134040.8125
6542377.5625
6977654.8125
7440179.375
7929454.625
8444539.625
8984526.9375
9548935.6875
1.0137835875E7
1.0751623625E7
1.139051675E7
1.20539761875E7
1.27403035E7
1.34466E7
1.4169113375E7
1.4903814375E7
1.5646929375E7
1.63951603125E7
1.71454614375E7
1.78944509375E7
1.86377185E7
1.936935925E7
2.0081980625E7
2.07672273125E7
2.1416639375E7
2.202251375E7
2.25784438125E7
2.30793658125E7
2.352117475E7
2.3900165875E7
2.4212627E7
2.4454814625E7
2.46233434375E7
2.47158085E7
2.47313434375E7
2.46708543125E7
2.45368333125E7
2.43328619375E7
2.4063052375E7
2.37316799375E7
2.334312825E7
2.2902079125E7
2.2413734E7
2.18838365E7
2.13183865625E7
2.07231314375E7
2.0103079E7
1.9462308625E7
1.880422725E7
1.8132188875E7
1.7450185375E7
1.67632365625E7
1.60772169375E7
1.5398115625E7
1.47310105E7
1.407920875E7
1.34439669375E7
1.28249600625E7
1.2221330125E7
1.16328661875E7
1.10607893125E7
1.05077803125E7
9977228.625
9472032.9375
8993496.625
8540819.625
8111423.5625
7701974.1875
7309659.25
6933180.3125
6573060.75
6231186.8125
5909834.125
5610633.8125
5333918.8125
5078679.8125
4843066.125
4625131.875
4423453.75
4237357.625
4066713.0
3911471.75
3771233.5
3645071.875
3531694.625
3429827.125
3338598.375
3257724.3125
3187407.0
3128025.3125
3079798.5
3042608.0
3016064.4375
2999770.3125
2993622.625
2997988.75
3013661.9375
3041627.3125
3082766.6875
3137652.6875
3206521.375
3289403.6875
3386307.8125
3497322.4375
3622570.0625
3762045.125
3915457.0625
4082217.625
4261641.5625
4453310.75
4657442.5625
4875069.75
5107902.4375
5357880.5625
5626570.0625
5914637.125
6221609.1875
6546010.3125
6885795.8125
7238888.8125
7603585.375
7978672.4375
8363237.125
8756286.125
9156361.5625
9561318.0625
9968326.125
1.03740518125E7
1.0774883E7
1.1167071875E7
1.15467326875E7
1.190973125E7
1.22515781875E7
1.2567447625E7
1.2852388625E7
1.31017033125E7
1.33113810625E7
1.3478449625E7
1.36011318125E7
1.367877925E7
1.3711638125E7
1.3700558E7
1.3646757375E7
1.35517189375E7
1.34172204375E7
1.32454565E7
1.30391790625E7
1.28017933125E7
1.25373703125E7
1.225056475E7
1.19464439375E7
1.16302421875E7
1.130705975E7
1.098154125E7
1.0657586375E7
1.0338159375E7
1.00252606875E7
9720087.3125
9423354.9375
9135694.6875
8858004.125
8591641.3125
8338407.0
8100337.1875
7879401.125
7677231.125
7494987.8125
7333402.4375
7192958.4375
7074119.6875
6977501.0
6903910.375
6854255.875
6829367.625
6829813.9375
6855782.6875
6907059.6875
6983092.3125
7083097.375
7206170.1875
7351370.4375
7517785.0
7704580.1875
7911051.1875
8136654.25
8380991.9375
8643719.375
8924361.875
9222072.4375
9535391.9375
9862091.375
1.019915475E7
1.05429200625E7
1.08893391875E7
1.1234277E7
1.15737575625E7
1.190408725E7
1.2221831E7
1.2523669625E7
1.280620425E7
1.3065790125E7
1.3298467375E7
1.350003025E7
1.3666237E7
1.37931315625E7
1.38774216875E7
1.39168453125E7
1.39104529375E7
1.385874225E7
1.37636063125E7
1.36280884375E7
1.3455983875E7
1.3251365375E7
1.301813575E7
1.27597055625E7
1.24788628125E7
1.217784725E7
1.1858583375E7
1.1522982875E7
1.11732135E7
1.08118519375E7
1.04418808125E7
1.0066546E7
9689130.3125
9312720.625
8940033.375
8573336.4375
8214464.6875
7864894.5625
7525826.375
7198230.125
6882830.4375
6580040.0
6289880.0625
6011942.6875
5745444.0
5489391.875
5242848.6875
5005226.625
4776525.0625
4557420.1875
4349154.6875
4153235.375
3971015.4375
3803285.9375
3650007.0625
3510272.4375
3382519.625
3264920.4375
3155820.125
3054084.0
2959246.4375
2871434.5
2791116.9375
2718789.3125
2654713.25
2598797.6875
2550646.9375
2509738.6875
2475654.875
2448280.8125
2427907.3125
2415208.1875
2411098.25
2416505.75
2432107.375
2458085.5625
2493968.375
2538611.125
2590355.875
2647365.0625
2708072.9375
2771642.8125
2838295.8125
2909393.0
2987221.8125
3074532.5625
3173963.1875
3287530.625
3416349.5
3560648.375
3720045.6875
3893949.75
4081915.125
4283825.0
4499860.625
4730320.0625
4975408.3125
5235119.4375
5509266.9375
5797629.375
6100113.6875
6416825.0
6747980.8125
7093687.5
7453669.25
7827060.6875
8212342.6875
8607426.5
9009822.25
9416794.6875
9825434.375
1.0232632125E7
1.0635009625E7
1.10288880625E7
1.14103514375E7
1.1775398875E7
1.21201175625E7
1.2440783125E7
1.273382975E7
1.2995711125E7
1.32227546875E7
1.34111485E7
1.35571584375E7
1.3657572625E7
1.3710249875E7
1.371456875E7
1.36715878125E7
1.35838239375E7
1.34547094375E7
1.32879185625E7
1.3086807E7
1.285415325E7
1.25922560625E7
1.2303288125E7
1.1989705E7
1.1654501375E7
1.13011986875E7
1.0933581375E7
1.05553169375E7
1.0169635375E7
9779197.75
9386180.125
8992492.875
8600002.0625
8210640.25
7826371.6875
7449061.1875
7080345.25
6721587.125
6373934.5
6038423.25
5716036.625
5407650.5625
5113869.3125
4834830.9375
4570101.0625
4318743.6875
4079573.0625
3851494.0625
3633783.25
3426181.5625
3228758.5
3041623.125
2864637.125
2697290.5
2538816.875
2388499.8125
2246010.125
2111584.5625
1985916.6875
1869767.625
1763444.5625
1666374.125
1576975.375
1492917.8125
1411692.0625
1331289.1875
1250740.25
1170326.8125
1091404.1875
1015922.875
945829.9375
882550.6875
826688.8125
777989.5
735517.3125
697953.375
663914.25
632222.125
602090.9375
573210.25
545718.625
520062.1875
496755.25
476096.8125
457930.1875
441544.75
425784.625
409355.5625
391233.4375
371019.375
349090.5625
326468.5625
304445.3125
284112.0625
265983.75
249871.1875
235043.75
220593.0625
205824.3125
190493.5
174796.1875
159138.4375
143829.625
128871.8125
113965.1875
98729.5625
83023.875
67184.8125
52039.3125
38656.3125
27933.125
20204.3125
15057.3125
11449.625
8084.625
3882.875
-1652.625
-8328.75
-15438.5625
-22122.6875
-27739.5625
-32081.6875
-35364.5
-38031.75
-40507.25
-43034.4375
-45683.3125
-48499.25
-51681.6875
-55658.75
-60974.875
-68014.625
-76684.125
-86219.375
-95250.6875
-102149.125
-105552.625
-104878.5
-100620.375
-94299.0625
-88070.0625
-84117.3125
-84041.625
-88444.875
-96833.6875
-107844.4375
-119686.875
-130642.0
-139460.375
-145564.5
-149040.375
-150471.875
-150702.4375
-150604.5625
-150904.3125
-152076.1875
-154299.3125
-157464.0625
-161222.4375
-165084.9375
-168556.5625
-171291.9375
-173225.625
-174628.3125
-176051.3125
-178158.5
-181490.875
-186246.125
-192161.0
-198556.375
-204543.625
-209325.25
-212477.8125
-214105.3125
-214797.5625
-215405.5
-216723.5
-219208.5625
-222851.875
-227252.125
-231852.5
-236226.5
-240280.3125
-244276.375
-248670.5625
-253845.25
-259870.375
-266413.125
-272839.8125
-278457.5
-282768.75
-285604.9375
-287068.375
-287317.875
-286327.9375
-283779.0625
-279180.3125
-272203.125
-263076.6875
-252829.625
-243201.875
-236185.6875
-233334.625
-235111.6875
-240569.9375
-247544.375
-253328.4375
-255597.625
-253225.3125
-246668.3125
-237770.25
-229071.0625
-222905.4375
-220649.3125
-222386.8125
-227077.25
-233089.0
-238831.75
-243220.625
-245826.1875
-246737.9375
-246300.5
-244911.75
-242986.9375
-241059.5
-239878.1875
-240346.6875
-243245.9375
-248825.5
-256472.5
-264678.875
-271416.0
-274829.8125
-273991.5625
-269369.6875
-262777.0
-256764.875
-253685.25
-254803.125
-259838.75
-267139.875
-274413.9375
-279705.3125
-282198.5
-282511.5
-282372.1875
-283840.0625
-288421.875
-296456.875
-307005.9375
-318248.125
-328176.0625
-335276.625
-338931.875
-339428.375
-337646.3125
-334626.0
-331220.625
-327962.875
-325141.5625
-322982.875
-321798.75
-322010.5625
-324042.375
-328149.4375
-334274.25
-341991.6875
-350551.0625
-358977.75
-366190.5625
-371117.5
-372824.6875
-370685.5
-364583.25
-355091.3125
-343528.8125
-331802.4375
-322012.6875
-315910.5
-314385.3125
-317186.4375
-323012.4375
-329960.4375
-336174.1875
-340438.25
-342486.125
-342911.375
-342748.0625
-342927.4375
-343863.1875
-345342.875
-346747.875
-347465.1875
-347270.3125
-346488.6875
-345863.5625
-346211.6875
-348050.5
-351386.4375
-355761.5625
-360519.25
-365140.1875
-369472.0625
-373741.0
-378355.0
-383615.25
-389493.4375
-395587.75
-401266.75
-405910.5625
-409113.5625
-410744.9375
-410857.4375
-409521.875
-406712.0
-402325.875
-396345.125
-389035.8125
-381057.5625
-373380.75
-367013.3125
-362646.6875
-360388.0
-359717.5
-359707.3125
-359409.25
-358234.6875
-356153.4375
-353626.6875
-351322.375
-349767.5625
-349117.1875
-349150.5
-349482.625
-349862.8125
-350386.125
-351492.4375
-353744.8125
-357498.1875
-362635.125
-368515.625
-374180.1875
-378719.375
-381635.5625
-383027.1875
-383511.0
-383926.75
-384967.875
-386910.0
-389549.75
-392357.1875
-394743.875
-396301.9375
-396904.1875
-396639.0
-395646.0
-393966.5625
-391501.0625
-388100.6875
-383736.875
-378651.5
-373401.3125
-368768.5
-365580.8125
-364522.1875
-366007.0
-370141.875
-376743.375
-385355.625
-395235.0625
-405321.5
-414267.5625
-420602.375
-423052.625
-420953.1875
-414592.875
-405320.9375
-395300.375
-386931.625
-382116.875
-381629.1875
-384836.9375
-389911.5
-394459.75
-396353.3125
-394446.5
-388920.125
-381139.4375
-373106.8125
-366739.25
-363253.75
-362876.0
-364945.8125
-368330.1875
-371948.5
-375191.75
-378087.0625
-381172.25
-385160.4375
-390543.875
-397294.0
-404764.0
-411822.5
-417168.0625
-419718.5
-418951.0625
-415085.6875
-409054.3125
-402261.9375
-396212.9375
-392121.25
-390633.3125
-391753.875
-394992.1875
-399656.625
-405163.5625
-411217.5625
-417777.875
-424829.9375
-432084.5625
-438780.5
-443734.5625
-445674.4375
-443747.0
-437986.9375
-429517.875
-420349.5625
-412803.625
-408769.875
-409079.4375
-413246.9375
-419682.625
-426278.375
-431120.5625
-433042.9375
-431824.5
-428011.9375
-422514.8125
-416205.6875
-409716.625
-403489.375
-397979.5625
-393827.0
-391829.9375
-392688.0
-396634.875
-403177.5
-411136.125
-419036.875
-425719.25
-430881.8125
-435281.5625
-440443.3125
-447962.125
-458690.0625
-472177.375
-486646.25
-499544.375
-508461.25
-512022.0
-510373.125
-505057.25
-498343.0625
-492314.25
-488118.3125
-485684.375
-483995.5
-481748.25
-478068.6875
-472955.8125
-467272.6875
-462329.9375
-459288.875
-458674.5625
-460208.75
-462999.3125
-465952.75
-468188.0625
-469261.625
-469137.9375
-467981.8125
-465935.5625
-463028.5
-459269.4375
-454848.375
-450297.375
-446469.9375
-444299.875
-444424.1875
-446849.875
-450843.625
-455131.9375
-458354.875
-459591.625
-458731.5
-456523.1875
-454272.5
-453309.125
-454443.4375
-457634.3125
-462001.0
-466164.875
-468779.8125
-469037.625
-466957.8125
-463361.8125
-459554.375
-456840.375
-456056.75
-457280.625
-459809.0625
-462408.25
-463743.125
-462843.875
-459454.5625
-454149.6875
-448176.125
-443066.9375
-440149.1875
-440109.875
-442767.5625
-447134.0
-451746.125
-455152.5
-456378.25
-455199.8125
-452137.1875
-448181.125
-444380.375
-441464.25
-439650.875
-438703.75
-438184.1875
-437762.8125
-437432.625
-437524.75
-438526.375
-440799.5
-444346.3125
-448739.5
-453254.5
-457140.75
-459905.125
-461479.1875
-462204.1875
-462655.3125
-463401.0625
-464812.8125
-467002.875
-469894.3125
-473359.875
-477337.0
-481851.125
-486936.4375
-492506.625
-498253.375
-503637.0625
-507982.3125
-510637.5
-511128.8125
-509248.875
-505062.125
-498852.0625
-491057.75
-482236.5625
-473052.0
-464253.25
-456603.9375
-450745.8125
-447029.5625
-445384.8125
-445305.9375
-445986.75
-446570.625
-446419.4375
-445287.875
-443328.4375
-440931.1875
-438485.5
-436187.0
-433990.75
-431727.125
-429308.4375
-426895.875
-424911.5
-423863.0
-424052.6875
-425322.8125
-426988.75
-428033.875
-427511.875
-424992.75
-420848.0
-416228.625
-412719.875
-411797.6875
-414302.5625
-420139.125
-428310.8125
-437257.6875
-445346.0
-451313.75
-454521.0625
-454960.625
-453090.4375
-449609.1875
-445283.875
-440871.1875
-437098.25
-434630.625
-433973.875
-435321.75
-438428.6875
-442609.125
-446924.125
-450523.125
-453015.4375
-454699.125
-456512.0625
-459680.8125
-465180.0625
-473213.125
-482938.5625
-492579.1875
-499900.375
-502892.8125
-500410.125
-492528.25
-480501.1875
-466344.6875
-452215.125
-439814.0625
-430022.375
-422864.6875
-417774.3125
-414022.375
-411127.875
-409091.4375
-408372.3125
-409632.5
-413355.625
-419495.9375
-427302.3125
-435403.875
-442155.0
-446140.0625
-446671.5
-444096.125
-439774.8125
-435704.9375
-433884.375
-435626.125
-441071.1875
-449096.5625
-457677.3125
-464590.625
-468208.5
-468077.6875
-465057.8125
-460959.1875
-457819.0
-457101.9375
-459140.875
-463032.6875
-467017.9375
-469176.9375
-468159.8125
-463669.9375
-456540.9375
-448418.4375
-441208.5
-436517.25
-435268.375
-437579.4375
-442862.8125
-450050.3125
-457843.5625
-464941.4375
-470252.625
-473114.0
-473502.0625
-472162.4375
-470550.5
-470505.75
-473686.75
-480925.125
-491747.375
-504301.0625
-515791.0
-523324.4375
-524873.875
-519984.1875
-509929.3125
-497239.8125
-484785.6875
-474787.3125
-468160.0625
-464443.375
-462306.375
-460364.625
-457915.5625
-455255.9375
-453454.875
-453721.0625
-456691.0625
-461993.8125
-468300.3125
-473827.75
-477048.8125
-477266.375
-474794.0
-470685.125
-466176.625
-462143.625
-458839.125
-456029.625
-453423.1875
-451130.0625
-449874.375
-450806.3125
-454972.125
-462687.0625
-473126.125
-484361.75
-493881.625
-499398.875
-499633.75
-494751.75
-486291.6875
-476627.9375
-468196.0
-462784.0
-461134.375
-462948.0
-467210.625
-472649.75
-478118.375
-482782.25
-486106.8125
-487737.375
-487397.625
-484888.4375
-480189.0625
-473588.3125
-465747.5
-457627.25
-450281.0625
-444585.875
-441015.3125
-439543.3125
-439712.375
-440831.625
-442225.5
-443441.5625
-444354.875
-445149.4375
-446201.9375
-447917.3125
-450567.1875
-454173.0
-458456.0
-462861.375
-466654.75
-469075.625
-469520.125
-467713.9375
-463827.3125
-458493.0625
-452710.5
-447650.0625
-444406.625
-443764.125
-446032.4375
-450990.625
-457942.25
-465858.0
-473568.0625
-479964.3125
-484183.125
-485745.0
-484631.8125
-481285.1875
-476513.5625
-471314.125
-466640.6875
-463174.25
-461166.5
-460410.5
-460356.0
-460334.75
-459817.3125
-458610.0
-456921.9375
-455283.8125
-454358.5625
-454721.25
-456691.25
-460266.9375
-465167.125
-470938.0625
-477069.75
-483077.5625
-488536.0625
-493082.8125
-496421.1875
-498340.375
-498748.25
-497690.1875
-495330.75
-491891.1875
-487569.75
-482487.5625
-476698.1875
-470266.5
-463379.375
-456422.4375
-449965.6875
-444638.25
-440937.5
-439057.9375
-438833.3125
-439837.3125
-441610.5625
-443911.6875
-446861.9375
-450890.1875
-456476.4375
-463795.5
-472429.4375
-481307.9375
-488952.6875
-493967.25
-495596.875
-494127.625
-490939.0
-488148.5625
-487946.625
-491848.375
-500131.6875
-511672.25
-524243.8125
-535188.125
-542227.125
-544143.1875
-541106.625
-534551.0625
-526655.1875
-519613.9375
-514945.125
-513056.6875
-513205.0
-513845.0
-513242.8125
-510137.75
-504225.375
-496293.4375
-487961.4375
-481110.1875
-477202.1875
-476736.875
-479044.5
-482503.375
-485110.6875
-485202.375
-482056.6875
-476156.9375
-469017.3125
-462644.625
-458847.625
-458659.9375
-462087.9375
-468254.625
-475846.5625
-483655.125
-490977.4375
-497725.25
-504228.5625
-510859.4375
-517672.6875
-524237.25
-529730.6875
-533240.9375
-534128.375
-532282.9375
-528174.125
-522695.125
-516894.0
-511719.8125
-507879.1875
-505819.875
-505783.125
-507834.875
-511815.0
-517217.8125
-523086.5
-528032.0625
-530448.4375
-528903.5
-522589.25
-511656.6875
-497284.8125
-481423.8125
-466281.875
-453730.75
-444843.0
-439722.625
-437679.5625
-437663.375
-438778.9375
-440683.875
-443721.625
-448750.375
-456740.9375
-468296.0
-483264.1875
-500585.5
-518425.1875
-534562.6875
-546922.4375
-554092.4375
-555674.6875
-552358.0625
-545683.5625
-537567.125
-529727.125
-523204.5625
-518143.4375
-513913.25
-509531.1875
-504221.6875
-497887.375
-491287.5
-485832.8125
-483062.5
-484010.25
-488724.8125
-496155.6875
-504465.6875
-511650.25
-516211.125
-517607.6875
-516310.125
-513455.5625
-510282.75
-507611.375
-505595.0
-503834.125
-501756.6875
-499045.375
-495878.375
-492854.625
-490646.8125
-489573.875
-489334.0625
-489065.875
-487737.25
-484692.0
-480089.9375
-475011.75
-471148.9375
-470191.375
-473168.5625
-480024.5625
-489605.4375
-500055.0625
-509440.8125
-516345.875
-520198.4375
-521243.8125
-520228.4375
-517977.8125
-515068.25
-511716.3125
-507883.6875
-503495.25
-498629.9375
-493587.3125
-488816.375
-484770.375
-481780.0625
-480004.0
-479454.3125
-480043.25
-481589.5
-483766.3125
-486035.25
-487647.5
-487777.4375
-485783.6875
-481502.8125
-475429.9375
-468661.875
-462575.625
-458344.0
-456490.375
-456689.375
-457928.8125
-458985.5
-459016.6875
-457999.6875
-456806.5
-456858.9375
-459496.375
-465326.25
-473840.4375
-483471.8125
-492076.9375
-497652.3125
-499001.9375
-496103.875
-490059.625
-482678.6875
-475880.6875
-471139.5625
-469138.75
-469704.3125
-471972.8125
-474698.1875
-476595.0
-476652.8125
-474387.5625
-470005.6875
-464444.25
-459237.5625
-456186.375
-456867.8125
-462112.4375
-471634.5625
-483990.4375
-496938.875
-508118.5625
-515807.5625
-519465.1875
-519821.4375
-518460.75
-517067.9375
-516664.0
-517180.0625
-517574.4375
-516452.0625
-512907.625
-507193.1875
-500875.1875
-496366.75
-496006.0
-501065.625
-511125.5
-524092.25
-536872.5625
-546426.4375
-550767.9375
-549514.5625
-543793.0
-535593.0625
-526889.25
-518927.875
-511968.9375
-505544.875
-499053.5
-492359.6875
-486097.5625
-481524.5
-480003.75
-482368.0625
-488471.875
-497145.25
-506576.625
-514954.0
-521084.8125
-524730.25
-526523.9375
-527528.125
-528636.1875
-530086.0625
-531294.9375
-531082.4375
-528188.9375
-521876.5
-512369.25
-500954.9375
-489696.3125
-480841.8125
-476129.625
-476218.5625
-480434.625
-486925.25
-493182.9375
-496783.25
-496111.625
-490852.0625
-482080.1875
-471924.1875
-462899.25
-457129.5625
-455712.6875
-458437.75
-463942.875
-470245.25
-475441.1875
-478318.0
-478661.875
-477170.125
-475036.8125
-473405.8125
-472928.5
-473601.5
-474927.6875
-476297.3125
-477387.9375
-478383.0625
-479898.0
-482643.1875
-486983.625
-492603.3125
-498446.5625
-502983.3125
-504707.875
-502675.125
-496862.375
-488215.3125
-478368.25
-469153.0625
-462090.375
-458045.125
-457148.25
-458970.25
-462832.875
-468101.6875
-474332.75
-481226.6875
-488440.125
-495376.4375
-501088.75
-504383.0625
-504123.5625
-499646.625
-491132.8125
-479778.0
-467662.0
-457310.625
-451057.0
-450387.9375
-455484.5625
-465117.9375
-476953.5
-488183.375
-496295.25
-499732.3125
-498234.0
-492756.9375
-485024.375
-476883.8125
-469718.0
-464120.5625
-459935.0625
-456599.9375
-453617.875
-450921.5625
-448962.75
-448484.6875
-450087.375
-453798.6875
-458865.5625
-463888.4375
-467265.0625
-467769.125
-465021.0625
-459649.375
-453068.75
-446962.625
-442679.3125
-440778.0625
-440889.3125
-441914.5
-442450.25
-441243.5
-437497.0
-430932.0625
-421639.0
-409832.75
-395657.875
-379134.25
-360248.75
-339114.875
-316096.1875
-291814.5625
-267039.6875
-242520.9375
-218853.5
-196444.1875
-175579.5
-156533.0
-139622.3125
-125152.0625
-113246.25
-103646.9375
-95591.6875
-87860.5625
-79011.75
-67734.375
-53188.25
-35199.125
-14237.625
8795.875
32880.5
57143.5
80991.3125
104077.1875
126160.625
146957.75
166068.8125
183014.4375
197344.875
208745.75
217071.0625
222285.3125
224354.875
223168.8125
218555.75
210408.0
198856.6875
184393.3125
167847.125
150188.875
132221.125
114286.5
96132.875
77020.375
56048.6875
32583.3125
6608.5
-21141.5
-49329.375
-76380.0625
-100919.1875
-122115.8125
-139814.3125
-154437.8125
-166740.0625
-177533.375
-187504.8125
-197168.25
-206920.8125
-217124.875
-228135.375
-240243.125
-253564.5625
-267953.125
-283000.0
-298147.125
-312867.8125
-326827.125
-339936.125
-352264.5
-363853.0625
-374525.375
-383809.625
-391035.3125
-395582.1875
-397179.1875
-396112.125
-393226.5625
-389699.125
-386650.9375
-384753.125
-383985.75
-383651.4375
-382643.5
-379863.6875
-374625.625
-366889.375
-357244.625
-346658.875
-336098.5
-326168.5
-316900.75
-307751.875
-297792.3125
-286000.625
-271552.6875
-254013.6875
-233389.0
-210047.5
-184571.9375
-157604.1875
-129741.5625
-101504.1875
-73360.5625
-45771.5625
-19208.25
5884.8125
29181.5
50586.9375
70319.0625
88905.0
107066.125
125507.625
144677.3125
164582.75
184752.6875
204380.125
222616.5
238915.125
253287.9375
266357.5
279158.1875
292741.1875
307726.5
323978.5
340543.375
355885.625
368339.25
376597.5
380049.5625
378838.8125
373639.25
365270.1875
354334.875
341048.625
325323.8125
307047.1875
286390.75
263976.9375
240794.6875
217890.625
195979.0
175166.9375
154942.5
134451.5625
112943.5625
90178.3125
66594.5
43149.8125
20899.5625
513.4375
-18034.1875
-35441.8125
-52723.5625
-70683.125
-89472.625
-108460.4375
-126490.8125
-142430.9375
-155753.375
-166873.625
-177062.0625
-187941.0
-200774.125
-215859.3125
-232306.8125
-248321.6875
-261893.0
-271611.25
-277274.625
-280027.25
-281967.125
-285378.25
-291891.625
-301903.8125
-314468.875
-327687.4375
-339426.0625
-348082.8125
-353121.1875
-355198.1875
-355879.0625
-357073.875
-360413.875
-366775.6875
-376082.75
-387403.8125
-399274.3125
-410116.125
-418629.4375
-424067.375
-426352.4375
-426036.6875
-424138.75
-421903.4375
-420536.8125
-420969.9375
-423696.0
-428713.625
-435580.375
-443554.875
-451780.75
-459459.8125
-465973.0625
-470936.6875
-474206.6875
-475863.0625
-476196.5625
-475700.5625
-475045.6875
-475005.4375
-476313.75
-479474.8125
-484580.4375
-491213.4375
-498497.875
-505306.5625
-510571.0
-513585.0
-514184.8125
-512730.6875
-509893.8125
-506339.4375
-502445.125
-498182.1875
-493219.875
-487206.9375
-480102.75
-472394.75
-465084.9375
-459426.125
-456505.4375
-456847.75
-460215.8125
-465703.0
-472090.875
-478321.4375
-483879.0625
-488909.0625
-494013.375
-499810.3125
-506455.5
-513353.625
-519213.8125
-522460.1875
-521848.0625
-517038.625
-508885.75
-499296.5625
-490696.6875
-485289.125
-484381.375
-488027.0625
-495100.4375
-503753.3125
-512059.9375
-518598.125
-522765.375
-524753.375
-525250.9375
-525045.6875
-524707.875
-524470.75
-524308.625
-524115.25
-523849.5
-523553.625
-523240.9375
-522737.875
-521605.0625
-519227.0
-515068.8125
-508995.625
-501493.8125
-493655.9375
-486888.25
-482429.6875
-480868.75
-481866.6875
-484215.75
-486228.3125
-486311.625
-483506.0
-477785.75
-470027.0
-461687.625
-454354.75
-449348.0
-447507.9375
-449191.125
-454387.25
-462831.3125
-474015.75
-487102.75
-500826.5
-513519.6875
-523353.625
-528774.75
-529000.25
-524366.125
-516349.375
-507203.5
-499308.0
-494460.875
-493378.8125
-495590.0
-499742.875
-504185.3125
-507562.4375
-509193.75
-509104.25
-507748.125
-505603.0625
-502855.125
-499334.0
-494717.4375
-488884.4375
-482215.75
-475664.5
-470532.8125
-468033.0
-468821.25
-472711.0625
-478695.875
-485277.5
-490962.375
-494724.5625
-496256.875
-495932.5
-494527.9375
-492851.125
-491444.375
-490477.125
-489845.25
-489397.3125
-489156.875
-489424.0625
-490704.5
-493499.1875
-498048.3125
-504142.0
-511076.125
-517773.0
-523024.0625
-525776.0625
-525377.875
-521731.1875
-515324.5625
-507159.3125
-498595.125
-491142.6875
-486228.1875
-484954.8125
-487889.8125
-494917.0
-505197.125
-517268.3125
-529292.4375
-539412.5625
-546147.25
-548722.1875
-547242.375
-542643.375
-536419.9375
-530202.0625
-525302.5
-522379.0625
-521325.8125
-521431.9375
-521754.5
-521564.5625
-520694.0
-519639.125
-519369.6875
-520913.8125
-524887.0625
-531171.375
-538892.875
-546726.375
-553406.4375
-558226.5
-561295.875
-563427.25
-565687.625
-568809.5
-572735.4375
-576526.5625
-578705.25
-577903.4375
-573531.375
-566153.625
-557374.875
-549254.0
-543484.6875
-540698.75
-540210.25
-540325.6875
-539096.0625
-535181.5625
-528444.1875
-520004.875
-511743.1875
-505472.0625
-502167.0
-501600.25
-502539.5
-503407.75
-503087.875
-501495.1875
-499653.0
-499243.75
-501850.25
-508237.8125
-518000.625
-529714.9375
-541507.375
-551762.625
-559647.8125
-565239.5
-569235.125
-572427.625
-575214.3125
-577373.5
-578192.0625
-576850.9375
-572858.125
-566314.9375
-557898.1875
-548593.0
-539326.0625
-530683.75
-522836.4375
-515672.5
-509041.0625
-502956.5625
-497659.4375
-493515.4375
-490829.625
-489689.0625
-489925.0
-491205.4375
-493195.3125
-495682.6875
-498595.75
-501904.375
-505471.6875
-508954.25
-511824.75
-513519.25
-513642.5
-512124.0
-509245.25
-505523.9375
-501519.3125
-497662.4375
-494198.375
-491260.0625
-489015.9375
-487787.5625
-488046.0625
-490266.25
-494697.5625
-501169.1875
-509039.6875
-517336.125
-525034.5
-531364.75
-536008.0625
-539109.375
-541115.0
-542526.375
-543689.5625
-544708.375
-545495.125
-545899.75
-545827.125
-545275.5625
-544292.25
-542902.6875
-541090.0625
-538869.6875
-536431.8125
-534262.4375
-533138.9375
-533942.3125
-537328.0625
-543384.9375
-551450.6875
-560206.6875
-568058.6875
-573678.3125
-576493.375
-576917.8125
-576212.5
-576016.0625
-577723.3125
-581947.4375
-588266.5625
-595336.625
-601309.6875
-604393.3125
-603355.3125
-597825.875
-588339.9375
-576153.9375
-562924.4375
-550342.6875
-539799.3125
-532123.9375
-527433.1875
-525117.75
-523994.1875
-522618.5625
-519703.75
-514526.3125
-507180.0
-498562.375
-490074.25
-483128.9375
-478662.875
-476855.3125
-477183.125
-478787.875
-480983.1875
-483649.375
-487303.9375
-492783.0
-500662.625
-510691.0
-521529.75
-530981.4375
-536669.0
-536919.0
-531485.375
-521794.4375
-510574.8125
-500989.5625
-495593.0
-495510.375
-500146.375
-507516.4375
-515048.375
-520529.5
-522838.5625
-522210.1875
-519977.3125
-517938.375
-517621.375
-519726.25
-523930.8125
-529093.5625
-533739.4375
-536629.5
-537207.0625
-535776.5
-533372.0625
-531379.625
-531048.5625
-533062.125
-537309.5625
-542939.625
-548679.8125
-553312.8125
-556141.6875
-557265.3125
-557550.125
-558291.6875
-560686.3125
-565316.5
-571860.1875
-579151.75
-585577.375
-589646.9375
-590504.9375
-588173.0625
-583437.875
-577462.6875
-571325.375
-565709.5625
-560884.8125
-556950.875
-554170.75
-553159.75
-554769.8125
-559674.0
-567840.4375
-578181.875
-588619.8125
-596624.375
-600057.1875
-597975.5
-591037.875
-581306.0625
-571501.3125
-564018.875
-560121.4375
-559649.8125
-561354.125
-563660.0
-565488.9375
-566734.9375
-568179.875
-570906.9375
-575521.375
-581582.9375
-587549.4375
-591282.5
-590891.125
-585526.4375
-575763.0625
-563400.375
-550786.875
-539984.5625
-532144.875
-527345.3125
-524900.6875
-523938.8125
-523922.625
-524858.0625
-527111.875
-530975.6875
-536242.375
-542048.4375
-547087.8125
-550106.3125
-550434.9375
-548299.3125
-544750.0625
-541243.6875
-539066.4375
-538858.5625
-540434.0625
-542942.8125
-545261.9375
-546416.375
-545844.8125
-543433.0
-539364.3125
-533922.3125
-527374.875
-519993.3125
-512156.375
-504425.875
-497492.5
-491973.25
-488144.6875
-485759.5625
-484074.875
-482123.3125
-479133.0
-474908.8125
-469987.875
-465471.875
-462588.6875
-462166.6875
-464254.125
-468059.9375
-472250.1875
-475474.75
-476893.1875
-476468.125
-474896.4375
-473206.875
-472199.625
-471969.6875
-471722.0
-469962.125
-464994.25
-455535.25
-441211.375
-422751.125
-401807.375
-380473.6875
-360669.9375
-343607.625
-329511.0625
-317674.9375
-306820.6875
-295613.5
-283150.75
-269248.0625
-254423.8125
-239592.125
-225583.1875
-212675.0625
-200319.5
-187178.3125
-171467.5625
-151492.8125
-126181.3125
-95417.6875
-60064.25
-21667.25
18032.0
57598.1875
96241.3125
133903.0
171101.25
208636.4375
247289.125
287610.5625
329832.5
373861.625
419291.1875
465391.125
511087.375
554988.0625
595518.0
631175.1875
660848.1875
684075.5
701123.3125
712823.875
720221.6875
724170.5625
725057.4375
722774.8125
716945.4375
707275.3125
693843.5
677167.0
657995.125
636937.3125
614127.375
589126.875
561157.5
529580.875
494404.5625
456552.5625
417733.125
379922.25
344672.3125
312552.0625
282981.125
254543.8125
225647.0625
195221.6875
163145.25
130197.1875
97579.6875
66251.6875
36410.8125
7390.6875
-21965.0
-52624.125
-84712.0625
-117212.3125
-148191.125
-175478.1875
-197518.75
-214030.0
-226173.3125
-236162.4375
-246466.3125
-258932.8125
-274181.75
-291492.4375
-309202.0
-325430.125
-338831.875
-349095.5625
-357023.5625
-364203.625
-372424.8125
-383061.75
-396636.5625
-412680.375
-429907.8125
-446619.3125
-461190.5625
-472497.75
-480159.6875
-484537.625
-486504.1875
-487065.5625
-486966.5625
-486422.625
-485084.1875
-482258.6875
-477314.125
-470106.75
-461247.125
-452069.6875
-444286.375
-439436.5
-438346.0
-440816.625
-445684.8125
-451236.9375
-455819.4375
-458399.625
-458855.25
-457890.0
-456634.4375
-456119.9375
-456856.6875
-458680.75
-460905.3125
-462672.8125
-463329.625
-462657.5625
-460889.1875
-458544.9375
-456210.8125
-454379.9375
-453420.4375
-453641.8125
-455369.1875
-458932.0
-464533.8125
-472054.3125
-480895.9375
-489986.9375
-497987.5
-503646.8125
-506181.875
-505527.9375
-502362.5
-497898.5625
-493534.75
-490494.4375
-489568.8125
-491014.25
-494586.1875
-499650.0625
-505316.5625
-510583.0625
-514496.125
-516349.875
-515898.0625
-513508.4375
-510163.25
-507242.5625
-506114.625
-507660.3125
-511924.875
-518067.8125
-524671.25
-530306.625
-534126.75
-536215.375
-537518.0
-539360.8125
-542761.125
-547843.375
-553644.0625
-558422.125
-560361.9375
-558371.1875
-552622.375
-544593.75
-536583.375
-530899.125
-529062.6875
-531347.875
-536815.0
-543785.375
-550519.75
-555808.375
-559252.75
-561186.25
-562340.5625
-563456.5625
-565015.5
-567166.6875
-569807.625
-572705.875
-575562.9375
-577997.9375
-579513.5625
-579540.1875
-577617.625
-573674.4375
-568273.75
-562661.1875
-558513.5625
-557417.75
-560254.4375
-566735.625
-575313.625
-583540.5625
-588772.875
-588973.0
-583314.8125
-572384.4375
-557930.375
-542292.75
-527747.8125
-516003.4375
-507984.8125
-503909.5
-503535.875
-506426.375
-512103.8125
-520065.0
-529701.875
-540223.25
-550656.75
-559958.4375
-567195.75
-571737.1875
-573380.4375
-572383.1875
-569394.8125
-565314.8125
-561109.25
-557616.3125
-555371.0
-554483.5
-554612.0
-555060.5
-554998.5
-553751.375
-551064.375
-547230.875
-543017.0625
-539391.625
-537162.1875
-536667.1875
-537659.5
-539431.0625
-541115.25
-542016.5625
-541804.8125
-540483.75
-538170.125
-534825.6875
-530120.375
-523533.5625
-514666.0625
-503597.6875
-491072.3125
-478357.8125
-466789.25
-457184.5625
-449418.5625
-442398.25
-434500.6875
-424302.4375
-411261.125
-396000.1875
-380018.375
-364921.5
-351526.0
-339277.125
-326303.625
-310140.5
-288822.4375
-261848.9375
-230548.8125
-197632.6875
-166095.375
-137943.5
-113325.9375
-90474.75
-66500.75
-38698.5
-5778.5625
31522.0
70714.75
108580.1875
142463.1875
171261.5
195686.875
217724.875
239583.3125
262633.4375
286814.625
310728.875
332314.25
349730.4375
362025.25
369300.5
372366.75
372131.875
369078.0
363103.0
353785.0
340895.25
324850.5625
306834.125
288490.875
271328.75
256112.25
242542.5
229377.75
214938.875
197764.75
177125.8125
153188.3125
126796.1875
99015.1875
70678.25
42138.75
13315.125
-16039.875
-46015.0625
-76330.375
-106333.25
-135175.125
-162058.875
-186431.9375
-208053.0
-226945.25
-243307.5625
-257463.4375
-269877.25
-281200.5
-292270.3125
-303995.375
-317128.875
-332004.25
-348355.75
-365327.25
-381697.1875
-396248.8125
-408145.5
-417166.8125
-423720.8125
-428649.4375
-432926.25
-437380.0
-442541.125
-448634.5
-455666.1875
-463518.5625
-471987.9375
-480755.125
-489338.375
-497095.5
-503318.875
-507406.0625
-509036.0625
-508267.3125
-505506.75
-501366.3125
-496482.5
-491390.25
-486508.5625
-482220.25
-478967.4375
-477266.1875
-477586.5625
-480132.0625
-484627.4375
-490250.375
-495790.0
-500009.9375
-502081.0625
-501896.3125
-500113.8125
-497891.5625
-496416.3125
-496430.8125
-497966.0
-500391.3125
-502745.75
-504183.375
-504318.0
-503313.75
-501701.75
-500044.1875
-498638.75
-497425.625
-496139.125
-494603.8125
-492988.6875
-491846.875
-491883.375
-493546.3125
-496647.625
-500226.125
-502756.0625
-502634.75
-498736.375
-490771.125
-479277.6875
-465251.125
-449590.9375
-432650.9375
-414123.6875
-393331.4375
-369783.9375
-343721.125
-316350.0625
-289622.5
-265619.6875
-245803.5625
-230468.625
-218642.1875
-208476.375
-197951.1875
-185569.625
-170744.0
-153731.25
-135199.3125
-115680.375
-95207.25
-73318.125
-49411.25
-23239.9375
4740.5625
33388.0
61272.3125
87272.375
111064.9375
133237.0625
154933.75
177186.8125
200244.125
223238.1875
244384.1875
261646.875
273586.375
279990.875
281995.75
281616.75
280902.375
281085.0
282115.875
282786.125
281364.875
276444.5625
267594.875
255527.1875
241711.25
227646.125
214148.4375
200997.0
187090.6875
171021.125
151762.0625
129133.0625
103821.5625
76977.6875
49617.3125
22158.625
-5656.0
-34414.5
-64453.8125
-95371.75
-125921.9375
-154395.5625
-179339.5625
-200273.5625
-218041.5625
-234589.875
-252227.6875
-272675.125
-296314.8125
-321981.8125
-347387.6875
-369990.9375
-387934.3125
-400650.9375
-408908.875
-414326.625
-418626.0625
-422985.875
-427775.9375
-432741.5625
-437479.875
-441913.9375
-446496.25
-452034.3125
-459241.625
-468267.9375
-478473.5
-488583.5
-497160.5625
-503166.6875
-506342.0625
-507223.1875
-506809.8125
-506065.5625
-505515.0625
-505136.3125
-504581.8125
-503580.3125
-502273.8125
-501281.25
-501434.75
-503320.1875
-506875.6875
-511286.6875
-515272.3125
-517651.375
-517920.9375
-516553.5625
-514843.6875
-514349.4375
-516178.8125
-520452.3125
-526199.25
-531742.125
-535394.5
-536150.6875
-534057.0
-530109.875
-525753.25
-522232.75
-520113.8125
-519176.75
-518701.8125
-517966.3125
-516683.375
-515158.625
-514100.3125
-514202.875
-515736.625
-518362.625
-521267.8125
-523540.3125
-524585.125
-524363.3125
-523342.3125
-522201.875
-521471.875
-521307.9375
-521529.75
-521893.375
-522429.6875
-523634.875
-526366.0625
-531452.375
-539192.0
-548987.1875
-559326.25
-568170.1875
-573615.125
-574564.875
-571135.5625
-564622.875
-557048.875
-550476.5
-546367.5
-545218.125
-546575.5
-549372.25
-552398.5625
-554704.1875
-555790.625
-555566.75
-554150.6875
-551648.3125
-548021.0625
-543089.6875
-536648.0
-528617.75
-519173.6875
-508798.0625
-498259.3125
-488528.5
-480650.8125
-475578.875
-473978.5625
-476034.625
-481311.8125
-488739.1875
-496767.0625
-503689.75
-508054.0
-509020.4375
-506543.125
-501292.0625
-494347.75
-486792.75
-479369.6875
-472342.1875
-465595.1875
-458894.75
-452150.4375
-445528.8125
-439349.3125
-433817.875
-428750.1875
-423453.8125
-416865.75
-407911.25
-395926.5625
-380941.9375
-363673.75
-345211.0625
-326529.6875
-308059.625
-289513.1875
-270061.125
-248779.9375
-225159.1875
-199425.9375
-172525.5625
-145759.75
-120242.4375
-96420.375
-73873.6875
-51482.3125
-27877.75
-1975.3125
26642.6875
57644.125
90172.75
123256.0
156203.0625
188826.875
221423.5
254558.0
288783.25
324422.6875
361489.8125
399734.4375
438742.25
478008.125
516944.0
554846.0
590886.5
624190.75
654004.875
679895.0625
701873.1875
720358.125
735949.25
749082.1875
759711.25
767169.9375
770305.3125
767865.25
759009.3125
743748.0
723131.75
699100.0625
674026.9375
650111.6875
628815.0
610516.6875
594484.875
579137.6875
562486.1875
542610.3125
518038.75
487961.5
452276.75
411521.25
366751.75
319421.3125
271262.1875
224152.0
179933.3125
140175.0
105903.0625
77368.0
53934.625
34164.4375
16111.9375
-2218.0625
-22368.9375
-45038.375
-69926.5625
-95890.4375
-121366.1875
-144923.125
-165758.375
-183954.875
-200408.0
-216450.3125
-233321.0
-251686.625
-271400.375
-291587.0625
-311008.4375
-328549.1875
-343618.75
-356310.1875
-367267.8125
-377346.375
-387230.3125
-397188.375
-407061.6875
-416465.5
-425080.375
-432870.875
-440114.5
-447228.9375
-454494.75
-461831.0
-468756.6875
-474579.125
-478729.0
-481083.125
-482107.25
-482735.375
-484022.8125
-486722.8125
-490976.25
-496256.625
-501597.4375
-506003.375
-508865.625
-510208.375
-510672.0
-511257.0625
-512951.5625
-516396.6875
-521709.6875
-528496.6875
-536006.125
-543327.9375
-549555.625
-553880.875
-555643.5
-554385.6875
-549937.0
-542512.0625
-532760.625
-521704.875
-510543.8125
-500372.625
-491925.1875
-485454.25
-480811.4375
-477694.3125
-475938.25
-475697.125
-477401.5
-481490.3125
-488035.0
-496446.6875
-505440.75
-513326.3125
-518537.1875
-520197.375
-518477.8125
-514576.875
-510312.4375
-507482.1875
-507250.375
-509809.625
-514445.5625
-519956.0
-525224.875
-529692.125
-533518.375
-537391.5625
-542086.5
-547999.6875
-554881.8125
-561893.4375
-567951.625
-572199.875
-574379.25
-574926.8125
-574757.9375
-574836.4375
-575733.3125
-577382.1875
-579145.5625
-580165.4375
-579838.625
-578196.0
-575999.5
-574490.25
-574869.3125
-577712.0625
-582557.3125
-587853.375
-591314.75
-590587.1875
-584005.1875
-571183.3125
-553240.75
-532579.5
-512285.625
-495343.1875
-483902.8125
-478816.3125
-479555.875
-484507.125
-491517.125
-498512.875
-504007.25
-507366.3125
-508798.3125
-509112.6875
-509353.5625
-510430.4375
-512848.0625
-516590.0
-521161.0
-525750.5625
-529458.625
-531517.9375
-531461.4375
-529199.25
-524997.875
-519377.25
-512962.0625
-506336.8125
-499949.6875
-494090.8125
-488939.5
-484645.8125
-481390.8125
-479383.1875
-478777.6875
-479550.125
-481396.3125
-483729.4375
-485815.6875
-487025.625
-487114.1875
-486408.25
-485798.4375
-486501.625
-489658.5625
-495906.5625
-505095.5
-516267.0625
-527916.375
-538443.0
-546621.5
-551918.3125
-554551.6875
-555299.9375
-555165.5625
-555043.9375
-555519.25
-556829.0625
-558949.875
-561707.0625
-564825.75
-567903.0625
-570356.4375
-571440.8125
-570399.375
-566733.9375
-560487.875
-552392.625
-543759.3125
-536107.1875
-530654.25
-527883.0625
-527389.5
-528107.4375
-528831.9375
-528811.8125
-528132.75
-527693.9375
-528763.125
-532302.1875
-538374.1875
-545926.75
-553081.875
-557830.0625
-558832.9375
-555976.3125
-550419.5625
-544112.375
-538992.125
-536219.125
-535786.9375
-536667.8125
-537404.875
-536856.5625
-534740.0
-531724.5
-529047.6875
-527859.375
-528621.25
-530859.1875
-533386.5
-534886.1875
-534566.75
-532571.75
-529944.1875
-528158.25
-528437.0
-531171.4375
-535707.0625
-540592.0
-544172.3125
-545268.4375
-543643.8125
-540079.375
-536048.125
-533150.6875
-532559.75
-534688.625
-539181.5
-545176.8125
-551688.75
-557930.5
-563460.75
-568135.5
-571939.75
-574813.375
-576564.9375
-576907.125
-575578.75
-572480.6875
-567755.25
-561774.0625
-555044.8125
-548080.75
-541284.5625
-534884.9375
-528939.3125
-523396.6875
-518198.3125
-513388.625
-509205.9375
-506116.3125
-504762.25
-505811.3125
-509726.6875
-516520.0
-525580.5
-535673.8125
-545160.4375
-552407.3125
-556279.6875
-556544.1875
-554019.5625
-550385.25
-547677.3125
-547624.0
-551044.0625
-557522.8125
-565488.9375
-572675.5
-576813.0625
-576323.1875
-570787.6875
-561050.5
-548939.625
-536718.9375
-526459.0625
-519523.0625
-516310.875
-516312.25
-518420.625
-521386.75
-524258.125
-526666.5
-528877.375
-531592.5625
-535577.0
-541241.625
-548335.9375
-555876.875
-562365.3125
-566237.4375
-566406.3125
-562697.5625
-556004.8125
-548083.3125
-541031.5625
-536633.375
-535793.875
-538272.8125
-542809.75
-547583.375
-550825.1875
-551356.875
-548867.4375
-543865.125
-537373.8125
-530535.6875
-524293.5
-519253.375
-515725.625
-513846.5
-513661.125
-515091.1875
-517805.0625
-521088.8125
-523844.25
-524788.0
-522826.3125
-517473.25
-509130.8125
-499086.875
-489192.125
-481315.0
-476770.75
-475936.3125
-478189.625
-482179.4375
-486306.5625
-489224.5625
-490183.625
-489123.8125
-486533.875
-483177.125
-479810.75
-476992.5625
-475002.25
-473844.9375
-473281.5
-472848.1875
-471866.5
-469478.5625
-464745.0625
-456813.5625
-445120.9375
-429564.6875
-410575.5625
-389061.9375
-366240.6875
-343411.75
-321736.875
-302066.625
-284824.25
-269935.375
-256796.875
-244303.375
-230971.0
-215192.625
-195611.0625
-171525.0625
-143185.5
-111830.9375
-79383.1875
-47850.125
-18621.375
8081.0
33358.25
59295.375
88222.3125
121843.875
160580.6875
203391.5625
248158.4375
292484.0
334578.0
373871.5625
411115.875
447940.375
486071.25
526547.875
569258.125
612965.0
655779.3125
695846.6875
731945.8125
763755.375
791709.6875
816547.75
838780.1875
858312.125
874369.0625
885727.5625
891127.3125
889684.875
881158.25
865998.5
845219.875
820176.3125
792333.3125
763083.9375
733606.75
704741.375
676868.75
649821.1875
622878.0625
594897.125
564589.6875
530879.9375
493237.3125
451862.4375
407656.4375
361986.4375
316341.375
272010.5
229891.875
190468.5
153904.3125
120163.8125
89066.8125
60248.375
33076.0625
6621.9375
-20220.5
-48456.25
-78622.6875
-110489.0
-142973.8125
-174363.375
-202787.8125
-226798.25
-245830.0
-260375.375
-271801.25
-281886.125
-292259.5
-303949.4375
-317182.3125
-331463.625
-345853.875
-359297.25
-370878.0625
-379952.0625
-386185.125
-389571.875
-390489.0
-389769.1875
-388710.0
-388914.4375
-391911.25
-398620.5625
-408848.5
-421049.5
-432541.9375
-440201.5
-441451.8125
-435210.375
-422414.5
-405878.0
-389474.9375
-376917.6875
-370573.9375
-370772.125
-375859.375
-382981.5
-389261.6875
-392897.0625
-393734.0
-393107.0625
-393043.625
-395198.3125
-399991.5
-406324.125
-411986.5
-414574.1875
-412510.375
-405735.0
-395770.5
-385145.1875
-376421.1875
-371228.875
-369687.625
-370417.1875
-371094.3125
-369300.8125
-363319.75
-352597.0625
-337751.5625
-320205.5625
-301640.5
-283503.375
-266716.0
-251616.8125
-238059.6875
-225556.625
-213381.5
-200624.4375
-186244.75
-169183.125
-148550.6875
-123843.9375
-95087.375
-62810.6875
-27832.25
9083.4375
47557.0
87764.8125
130367.5625
176226.9375
226046.3125
280115.625
338297.5625
400279.875
465987.1875
535962.625
611531.3125
694650.5625
787489.75
891904.25
1009012.3125
1139037.875
1281464.1875
1435410.6875
1600062.875
1774983.25
1960207.625
2156142.125
2363366.5
2582475.875
2814048.8125
3058742.6875
3317434.5
3591296.625
3881725.5
4190122.9375
4517608.4375
4864786.25
5231668.3125
5617784.875
6022429.25
6444920.75
6884768.125
7341662.9375
7815311.1875
8305176.5
8810237.25
9328837.3125
9858658.1875
1.03967893125E7
1.093984025E7
1.14840464375E7
1.20253444375E7
1.255942325E7
1.3081768875E7
1.35877109375E7
1.40724630625E7
1.4531138875E7
1.4958741625E7
1.53501569375E7
1.5700209875E7
1.600385075E7
1.6256497125E7
1.64544878125E7
1.65955306875E7
1.6678989125E7
1.670588075E7
1.66785523125E7
1.66001181875E7
1.64738468125E7
1.630270725E7
1.6089223E7
1.5835652375E7
1.55443729375E7
1.52182631875E7
1.4860882375E7
1.4476353125E7
1.4068998125E7
1.36429061875E7
1.32016405625E7
1.27482353125E7
1.2285482875E7
1.18163636875E7
1.13443841875E7
1.08736145E7
1.0408343625E7
9952450.0625
9508725.75
9078438.125
8661333.0625
8256110.375
7861213.0
7475641.3125
7099496.875
6734067.6875
6381450.3125
6043881.125
5723049.125
5419646.0625
5133296.125
4862846.125
4606856.6875
4364078.375
4133730.5625
3915507.8125
3709364.9375
3515220.5625
3332736.0
3161272.625
3000033.375
2848303.875
2705661.25
2572038.75
2447603.5
2332497.5
2226557.5
2129148.5625
2039200.75
1955453.6875
1876823.0625
1802743.4375
1733343.4375
1669366.3125
1611849.625
1561674.0
1519147.25
1483786.4375
1454386.5
1429358.375
1407214.9375
1387023.75
1368658.375
1352755.375
1340396.375
1332638.375
1330067.0625
1332531.1875
1339138.0
1348485.6875
1359020.6875
1369374.75
1378562.8125
1385998.375
1391363.1875
1394424.9375
1394900.875
1392423.6875
1386605.125
1377142.375
1363899.9375
1346925.375
1326403.625
1302594.6875
1275804.75
1246413.75
1214934.4375
1182043.0625
1148521.6875
1115094.5625
1082205.5625
1049836.3125
1017471.0
984264.5625
949380.625
912376.625
873473.75
833578.5625
794024.125
756119.25
720688.4375
687796.0625
656779.0625
626574.875
596202.875
565185.875
533724.125
502547.875
472522.8125
444197.5625
417512.5
391813.6875
366174.0
339875.625
312827.75
285712.5625
259772.5625
236311.4375
216116.125
199049.5
184002.5625
169247.1875
153064.625
134412.1875
113369.875
91193.375
69950.875
51870.9375
38632.0625
30831.125
27797.4375
27792.75
28512.75
27720.25
23817.0
16200.75
5326.5625
-7519.3125
-20652.5
-32504.5
-42078.8125
-49228.3125
-54678.0625
-59783.875
-66087.3125
-74795.125
-86341.5
-100183.375
-114912.875
-128673.0
-139754.0
-147173.375
-151035.125
-152527.0625
-153542.5
-156049.6875
-161430.875
-170032.9375
-181096.3125
-193087.625
-204305.5
-213521.8125
-220403.8125
-225549.25
-230122.5
-235242.125
-241377.9375
-248018.3125
-253766.5625
-256853.8125
-255882.3125
-250511.25
-241800.375
-232047.375
-224142.375
-220647.6875
-222922.875
-230610.3125
-241674.6875
-252995.3125
-261316.375
-264237.3125
-260916.375
-252268.9375
-240620.1875
-228957.5625
-220050.9375
-215730.125
-216527.125
-221746.75
-229877.8125
-239155.4375
-248067.5625
-255656.0625
-261564.875
-265889.625
-268941.8125
-271040.8125
-272403.4375
-273134.1875
-273273.8125
-272849.25
-271891.1875
-270424.375
-268462.875
-266044.9375
-263313.25
-260606.625
-258500.9375
-257745.1875
-259076.875
-262963.6875
-269366.625
-277630.6875
-286573.4375
-294765.6875
-300919.8125
-304248.5
-304664.625
-302748.625
-299503.6875
-295997.4375
-293031.375
-290955.6875
-289679.25
-288840.4375
-288039.5625
-287022.375
-285740.625
-284284.75
-282745.8125
-281092.6875
-279130.625
-276557.125
-273073.8125
-268484.3125
-262722.125
-255797.875
-247710.5625
-238394.0625
-227756.4375
-215813.5
-202854.4375
-189536.3125
-176818.875
-165715.5625
-156928.9375
-150510.4375
-145696.1875
-141013.3125
-134641.5
-124901.0
-110681.4375
-91643.6875
-68128.5625
-40836.0
-10438.3125
22682.875
58458.875
96923.4375
137906.1875
180821.4375
224704.1875
268516.875
311601.3125
354052.375
396799.0625
441298.0625
488928.9375
540336.5
595020.75
651391.5625
707309.1875
760914.25
811403.5625
859407.9375
906783.3125
955871.0625
1008511.9375
1065214.75
1124820.625
1184803.9375
1242086.25
1294033.1875
1339236.125
1377784.25
1410951.0
1440458.625
1467644.875
1492866.375
1515351.6875
1533514.5625
1545555.9375
1550090.5
1546562.5
1535335.3125
1517484.4375
1494431.0
1467578.125
1438065.9375
1406675.5
1373842.875
1339718.8125
1304230.0625
1267139.6875
1228131.5625
1186935.0
1143471.3125
1097964.25
1050946.625
1003132.1875
955184.375
907478.25
859971.75
812262.75
763825.875
714332.125
663905.8125
613196.8125
563230.1875
515100.6875
469653.375
427294.4375
388004.625
351522.6875
317578.3125
286039.125
256891.5625
230083.375
205343.4375
182119.25
159710.0625
137556.625
115541.25
94115.1875
74137.25
56453.25
41391.5625
28430.875
16242.125
3151.0
-12140.9375
-29882.25
-48963.5625
-67158.0625
-81855.625
-91013.875
-93940.0
-91574.3125
-86155.5
-80404.875
-76565.75
-75682.375
-77383.9375
-80214.9375
-82325.125
-82204.375
-79169.5
-73451.625
-65927.9375
-57680.5
-49604.9375
-42213.4375
-35649.375
-29816.9375
-24495.125
-19355.0625
-13894.375
-7379.9375
1099.4375
12434.5625
27214.0625
45499.0
66790.1875
90241.4375
115045.6875
140819.1875
167792.9375
196700.625
228398.125
263382.75
301435.1875
341551.8125
382198.5
421761.375
458986.6875
493215.625
524338.375
552536.75
577988.1875
600706.875
620603.125
637701.8125
652356.3125
665283.375
677339.25
689107.25
700492.875
710550.25
717674.0
720122.9375
716674.3125
707134.1875
692479.5625
674567.75
655536.6875
637148.25
620335.625
605103.9375
590766.375
576355.8125
561003.3125
544135.4375
525468.3125
504890.875
482374.9375
457999.75
432074.9375
405252.625
378501.25
352882.4375
329197.875
307672.1875
287859.5
268864.375
249813.625
230369.375
211027.9375
193035.4375
177932.4375
166932.1875
160432.125
157905.75
158237.6875
160335.625
163704.75
168675.3125
176145.8125
186957.5625
201222.625
217977.6875
235395.0
251509.4375
265149.5
276629.6875
287842.0625
301647.25
320788.75
346783.875
379266.375
416060.25
453936.9375
489710.375
521194.125
547637.4375
569523.125
587916.0
603742.0
617368.875
628665.0625
637434.6875
643920.75
649031.5
654105.5
660291.3125
667852.25
675776.4375
681947.8125
683862.75
679603.1875
668630.875
652034.0
632101.875
611410.4375
591826.875
573871.25
556698.375
538672.0
518231.0
494631.75
468232.0
440221.1875
411972.0625
384361.6875
357402.6875
330354.3125
302235.75
272466.125
241305.125
209876.4375
179769.625
152419.125
128557.4375
107987.3125
89754.5625
72610.9375
55533.5
38067.1875
20367.9375
2982.0
-13485.6875
-28633.625
-42348.0625
-54721.875
-65912.125
-76064.375
-85366.3125
-94190.3125
-103204.375
-113325.375
-125466.25
-140148.875
-157151.25
-175374.4375
-193032.5625
-208129.3125
-219047.3125
-225021.4375
-226310.8125
-224018.25
-219656.375
-214657.875
-210029.3125
-206254.875
-203423.5625
-201449.625
-200231.75
-199662.75
-199510.6875
-199287.375
-198238.875
-195526.625
-190552.5625
-183275.8125
-174345.25
-164938.6875
-156340.0625
-149423.5
-144276.0
-140146.625
-135763.875
-129893.0
-121884.25
-111957.5625
-101085.8125
-90518.9375
-81161.3125
-73081.125
-65374.5625
-56446.75
-44585.5
-28577.5625
-8108.625
16206.9375
43148.5625
71397.125
99994.0625
128562.4375
157227.125
186311.0625
215976.8125
245984.3125
275659.875
304061.1875
330237.8125
353462.875
373352.0
389860.1875
403206.25
413791.0
422143.3125
428877.875
434616.5
439838.875
444684.125
448786.5625
451254.8125
450865.3125
446446.25
437321.4375
423622.4375
406306.9375
386836.6875
366628.125
346509.8125
326442.5
305654.0
283154.375
258408.3125
231847.0625
204954.9375
179845.375
158480.8125
141865.1875
129572.625
119838.5625
110194.375
98381.0625
83150.0625
64610.0625
43988.125
22942.3125
2767.6875
-16124.625
-34217.1875
-52404.4375
-71285.1875
-90609.1875
-109185.0625
-125327.8125
-137650.25
-145821.0625
-150906.3125
-155098.5625
-160919.0
-170233.0625
-183513.0625
-199679.0625
-216586.9375
-231942.25
-244228.8125
-253246.125
-260037.5625
-266276.375
-273420.8125
-282039.125
-291605.4375
-300830.125
-308331.625
-313304.5625
-315859.125
-316884.3125
-317528.8125
-318578.875
-320053.6875
-321221.0
-321017.1875
-318655.75
-314116.0
-308269.375
-302581.9375
-298543.0625
-297097.625
-298352.4375
-301682.8125
-306168.25
-311123.0
-316450.875
-322645.6875
-330440.625
-340283.25
-351899.75
-364166.5625
-375362.0625
-383693.3125
-387873.5625
-387514.1875
-383190.375
-376191.875
-368097.9375
-360367.5625
-354088.125
-349923.25
-348192.8125
-348968.5625
-352097.8125
-357143.3125
-363314.0625
-369488.8125
-374398.9375
-376946.625
-376542.6875
-373312.375
-368058.625
-361975.375
-356225.25
-351563.0625
-348170.5625
-345771.125
-343954.3125
-342539.4375
-341785.0
-342327.25
-344869.25
-349771.125
-356753.75
-364883.4375
-372874.4375
-379593.4375
-384543.0
-388097.75
-391370.125
-395747.4375
-402290.4375
-411253.25
-421933.25
-432918.0
-442622.0
-449879.5625
-454339.125
-456495.3125
-457356.5
-457908.0625
-458618.5
-459212.9375
-458814.375
-456388.625
-451290.3125
-443661.8125
-434501.25
-425358.0625
-417778.8125
-412733.5625
-410266.125
-409515.4375
-409103.5
-407728.8125
-404723.0
-400342.5
-395679.5
-392231.6875
-391309.3125
-393518.3125
-398521.875
-405165.0
-411897.375
-417316.75
-420614.25
-421758.875
-421372.875
-420377.125
-419574.0625
-419341.125
-419547.5
-419698.0
-419213.0
-417705.9375
-415140.25
-411817.875
-408237.8125
-404916.8125
-402266.5
-400575.25
-400072.375
-401002.4375
-403631.9375
-408154.6875
-414529.75
-422340.875
-430776.0625
-438776.5625
-445325.0
-449764.8125
-452011.75
-452555.1875
-452234.9375
-451880.4375
-451966.8125
-452437.875
-452773.5
-452268.125
-450391.5625
-447067.6875
-442747.25
-438249.625
-434453.9375
-431984.5
-431025.875
-431332.0
-432391.3125
-433639.0
-434597.25
-434881.0625
-434100.25
-431760.5625
-427280.3125
-420177.0625
-410374.5
-398484.3125
-385890.25
-374525.0625
-366362.875
-362794.0625
-364131.1875
-369469.625
-376993.6875
-384631.375
-390803.625
-394959.625
-397669.0625
-400229.6875
-403958.0625
-409475.375
-416310.125
-423005.25
-427698.9375
-428938.0
-426376.125
-421050.875
-415108.0
-411076.0625
-410979.125
-415642.75
-424459.75
-435688.375
-447134.1875
-456920.125
-464029.6875
-468427.75
-470756.625
-471788.75
-471912.875
-470897.25
-468032.4375
-462575.5625
-454276.25
-443727.5625
-432361.8125
-422069.9375
-414589.75
-410910.5625
-410940.125
-413570.125
-417116.125
-419957.5
-421126.625
-420624.4375
-419353.625
-418712.3125
-420018.75
-423993.5
-430489.1875
-438554.875
-446789.8125
-453838.3125
-458836.1875
-461648.9375
-462828.625
-463321.25
-464041.5
-465471.4375
-467424.9375
-469057.5625
-469122.125
-466388.4375
-460095.9375
-450292.75
-437945.1875
-424765.875
-412792.1875
-403828.6875
-398920.4375
-398029.6875
-400036.625
-403086.5
-405189.0625
-404878.3125
-401704.5625
-396377.0
-390490.25
-385922.375
-384119.4375
-385536.5625
-389454.125
-394251.125
-398038.0625
-399408.625
-398016.875
-394750.25
-391427.4375
-390136.1875
-392465.9375
-398928.6875
-408777.0
-420270.25
-431264.8125
-439889.5
-445059.0625
-446662.5
-445408.6875
-442440.125
-438893.875
-435573.0625
-432809.8125
-430507.875
-428283.75
-425621.0625
-421987.625
-416921.875
-410126.625
-401593.6875
-391740.1875
